time,Temp,TGA
[s],[K],[mg]
20.2,322,3.9488
35,322.5,3.9492
42.1,323,3.9482
47.4,323.5,3.9501
51.8,324,3.9492
55.7,324.5,3.9486
59.3,325,3.9477
62.4,325.5,3.948
65.4,326,3.9488
68.3,326.5,3.9497
70.9,327,3.9497
73.5,327.5,3.949
76,328,3.9497
78.3,328.5,3.9487
80.6,329,3.9486
82.8,329.5,3.9483
85,330,3.9467
87.1,330.5,3.9473
89.2,331,3.9471
91.3,331.5,3.9485
93.3,332,3.9477
95.2,332.5,3.948
97.2,333,3.9482
99.1,333.5,3.9482
101,334,3.9484
102.8,334.5,3.9481
104.7,335,3.9478
106.5,335.5,3.9476
108.3,336,3.9478
110.1,336.5,3.948
111.8,337,3.9478
113.6,337.5,3.9474
115.3,338,3.9481
117.1,338.5,3.9482
118.8,339,3.9479
120.5,339.5,3.9489
122.2,340,3.9493
123.9,340.5,3.9491
125.6,341,3.9486
127.3,341.5,3.9481
129,342,3.9474
130.6,342.5,3.9474
132.3,343,3.9478
133.9,343.5,3.9475
135.6,344,3.9476
137.2,344.5,3.9477
138.9,345,3.9467
140.5,345.5,3.9473
142.1,346,3.9469
143.8,346.5,3.9474
145.4,347,3.9477
147,347.5,3.9478
148.6,348,3.9488
150.2,348.5,3.9475
151.9,349,3.9486
153.5,349.5,3.9474
155.1,350,3.9472
156.7,350.5,3.9472
158.3,351,3.9473
159.9,351.5,3.9476
161.5,352,3.9473
163.1,352.5,3.9474
164.7,353,3.9487
166.3,353.5,3.9474
167.9,354,3.9485
169.5,354.5,3.9484
171,355,3.9486
172.6,355.5,3.9479
174.2,356,3.9473
175.8,356.5,3.9473
177.4,357,3.9472
178.9,357.5,3.9473
180.5,358,3.9464
182.1,358.5,3.9473
183.6,359,3.9473
185.2,359.5,3.946
186.8,360,3.9472
188.3,360.5,3.9473
189.9,361,3.9459
191.5,361.5,3.9473
193,362,3.9459
194.6,362.5,3.9474
196.1,363,3.9473
197.7,363.5,3.9463
199.2,364,3.946
200.7,364.5,3.9473
202.3,365,3.9473
203.8,365.5,3.9466
205.4,366,3.9473
206.9,366.5,3.9473
208.4,367,3.9473
210,367.5,3.9472
211.5,368,3.9476
213,368.5,3.9473
214.5,369,3.9478
216.1,369.5,3.9472
217.6,370,3.9473
219.1,370.5,3.9474
220.7,371,3.9486
222.2,371.5,3.9483
223.7,372,3.9473
225.2,372.5,3.9473
226.7,373,3.9467
228.2,373.5,3.9473
229.7,374,3.9467
231.3,374.5,3.946
232.8,375,3.9473
234.3,375.5,3.9473
235.8,376,3.9473
237.3,376.5,3.9473
238.8,377,3.9473
240.3,377.5,3.9473
241.8,378,3.948
243.4,378.5,3.9487
244.9,379,3.9473
246.4,379.5,3.9473
247.9,380,3.9473
249.4,380.5,3.9472
250.9,381,3.9473
252.4,381.5,3.9463
253.9,382,3.9459
255.4,382.5,3.9459
256.9,383,3.946
258.4,383.5,3.945
259.8,384,3.9446
261.3,384.5,3.9446
262.8,385,3.9447
264.3,385.5,3.9459
265.8,386,3.9453
267.3,386.5,3.9459
268.8,387,3.946
270.3,387.5,3.946
271.8,388,3.946
273.2,388.5,3.945
274.7,389,3.9449
276.2,389.5,3.9456
277.7,390,3.9456
279.2,390.5,3.946
280.7,391,3.946
282.1,391.5,3.946
283.6,392,3.9458
285.1,392.5,3.9463
286.6,393,3.9459
288.1,393.5,3.9459
289.5,394,3.9459
291,394.5,3.945
292.5,395,3.9446
293.9,395.5,3.9459
295.4,396,3.946
296.9,396.5,3.9459
298.4,397,3.9459
299.8,397.5,3.9459
301.3,398,3.9459
302.7,398.5,3.9459
304.2,399,3.9459
305.7,399.5,3.9459
307.1,400,3.9452
308.6,400.5,3.9459
310.1,401,3.9459
311.5,401.5,3.946
313,402,3.9447
314.4,402.5,3.9446
315.9,403,3.9432
317.4,403.5,3.9433
318.8,404,3.9432
320.3,404.5,3.9446
321.8,405,3.9446
323.2,405.5,3.9446
324.7,406,3.9436
326.1,406.5,3.9447
327.6,407,3.9446
329,407.5,3.9446
330.5,408,3.9438
331.9,408.5,3.9433
333.4,409,3.9433
334.8,409.5,3.9433
336.3,410,3.9433
337.7,410.5,3.9433
339.2,411,3.9433
340.6,411.5,3.9433
342,412,3.944
343.5,412.5,3.9438
344.9,413,3.9433
346.4,413.5,3.9433
347.8,414,3.9433
349.3,414.5,3.9433
350.7,415,3.9431
352.1,415.5,3.9417
353.6,416,3.9414
355,416.5,3.9407
356.4,417,3.9407
357.9,417.5,3.9407
359.3,418,3.9407
360.7,418.5,3.9405
362.1,419,3.9397
363.6,419.5,3.9397
365,420,3.9404
366.4,420.5,3.9404
367.9,421,3.9403
369.3,421.5,3.9402
370.7,422,3.9406
372.1,422.5,3.9407
373.5,423,3.9407
375,423.5,3.9407
376.4,424,3.9407
377.8,424.5,3.9396
379.3,425,3.9381
380.7,425.5,3.9381
382.1,426,3.9381
383.5,426.5,3.9381
385,427,3.9381
386.4,427.5,3.9381
387.8,428,3.9381
389.2,428.5,3.9381
390.7,429,3.9381
392.1,429.5,3.938
393.5,430,3.9367
394.9,430.5,3.9367
396.3,431,3.9367
397.8,431.5,3.9367
399.2,432,3.9366
400.6,432.5,3.9357
402,433,3.9358
403.4,433.5,3.9351
404.8,434,3.9341
406.3,434.5,3.9341
407.7,435,3.9341
409.1,435.5,3.9341
410.5,436,3.9352
412,436.5,3.9351
413.4,437,3.9351
414.8,437.5,3.9351
416.2,438,3.9337
417.6,438.5,3.9338
419.1,439,3.9338
420.5,439.5,3.933
421.9,440,3.9325
423.3,440.5,3.9325
424.7,441,3.9325
426.2,441.5,3.9325
427.6,442,3.9314
429,442.5,3.9309
430.4,443,3.9299
431.8,443.5,3.9298
433.2,444,3.9298
434.6,444.5,3.9299
436.1,445,3.9286
437.5,445.5,3.9285
438.9,446,3.9271
440.3,446.5,3.9272
441.7,447,3.9271
443.1,447.5,3.9259
444.5,448,3.9246
445.9,448.5,3.9246
447.3,449,3.9243
448.7,449.5,3.9232
450.2,450,3.9232
451.6,450.5,3.9226
453,451,3.9213
454.4,451.5,3.9206
455.8,452,3.92
457.2,452.5,3.9193
458.6,453,3.9193
460,453.5,3.9193
461.4,454,3.9193
462.8,454.5,3.918
464.3,455,3.9175
465.7,455.5,3.9167
467.1,456,3.9151
468.5,456.5,3.9148
469.9,457,3.9139
471.3,457.5,3.9139
472.7,458,3.9128
474.1,458.5,3.9125
475.5,459,3.9108
476.9,459.5,3.9086
478.3,460,3.9086
479.7,460.5,3.9077
481.1,461,3.9072
482.5,461.5,3.9058
483.9,462,3.9056
485.3,462.5,3.9046
486.7,463,3.9031
488.1,463.5,3.9022
489.5,464,3.9018
490.9,464.5,3.9004
492.3,465,3.8995
493.7,465.5,3.8991
495.1,466,3.8975
496.5,466.5,3.8956
497.9,467,3.8939
499.3,467.5,3.8933
500.7,468,3.8924
502.1,468.5,3.892
503.5,469,3.8909
504.9,469.5,3.8908
506.3,470,3.8889
507.7,470.5,3.8868
509.1,471,3.8855
510.5,471.5,3.8846
511.9,472,3.883
513.3,472.5,3.883
514.7,473,3.8818
516.1,473.5,3.8816
517.5,474,3.8805
518.9,474.5,3.8798
520.3,475,3.8798
521.7,475.5,3.8784
523.1,476,3.8779
524.5,476.5,3.8757
525.9,477,3.8741
527.3,477.5,3.8743
528.7,478,3.8729
530.1,478.5,3.8718
531.5,479,3.8713
532.9,479.5,3.8702
534.3,480,3.8686
535.7,480.5,3.8679
537.1,481,3.8664
538.5,481.5,3.8654
539.9,482,3.8651
541.3,482.5,3.864
542.7,483,3.8635
544.1,483.5,3.8621
545.5,484,3.8618
546.9,484.5,3.8598
548.3,485,3.8596
549.7,485.5,3.8582
551.1,486,3.8583
552.5,486.5,3.8569
553.9,487,3.8568
555.3,487.5,3.8555
556.7,488,3.8539
558.1,488.5,3.8529
559.5,489,3.8526
560.8,489.5,3.8511
562.3,490,3.8507
563.7,490.5,3.8497
565.1,491,3.8489
566.4,491.5,3.8483
567.8,492,3.8483
569.2,492.5,3.847
570.6,493,3.8466
572,493.5,3.8457
573.4,494,3.8442
574.8,494.5,3.8434
576.2,495,3.842
577.6,495.5,3.8406
579,496,3.8392
580.4,496.5,3.8386
581.8,497,3.8369
583.2,497.5,3.8366
584.6,498,3.8366
586,498.5,3.8352
587.4,499,3.8349
588.8,499.5,3.8339
590.2,500,3.8335
591.6,500.5,3.8324
593,501,3.831
594.4,501.5,3.8311
595.8,502,3.8301
597.2,502.5,3.8298
598.6,503,3.8288
600,503.5,3.8285
601.4,504,3.8278
602.8,504.5,3.8272
604.2,505,3.8265
605.6,505.5,3.8252
607,506,3.8252
608.4,506.5,3.8246
609.8,507,3.8239
611.2,507.5,3.8239
612.6,508,3.8232
614,508.5,3.8232
615.4,509,3.8221
616.8,509.5,3.8219
618.1,510,3.8219
619.5,510.5,3.8219
620.9,511,3.8219
622.3,511.5,3.8219
623.7,512,3.8219
625.1,512.5,3.8219
626.5,513,3.8219
627.9,513.5,3.8214
629.3,514,3.8206
630.7,514.5,3.8206
632.1,515,3.8206
633.5,515.5,3.8204
634.9,516,3.8193
636.3,516.5,3.8188
637.7,517,3.8183
639.1,517.5,3.8183
640.5,518,3.8183
641.9,518.5,3.8183
643.3,519,3.8183
644.7,519.5,3.8183
646.1,520,3.8183
647.5,520.5,3.8182
648.9,521,3.8173
650.3,521.5,3.817
651.6,522,3.817
653,522.5,3.817
654.4,523,3.817
655.8,523.5,3.8156
657.2,524,3.8156
658.6,524.5,3.8156
660,525,3.8156
661.4,525.5,3.8156
662.8,526,3.8156
664.2,526.5,3.8156
665.6,527,3.8156
667,527.5,3.8156
668.4,528,3.8156
669.8,528.5,3.8153
671.2,529,3.815
672.6,529.5,3.814
673.9,530,3.814
675.3,530.5,3.814
676.7,531,3.814
678.1,531.5,3.814
679.5,532,3.8119
680.9,532.5,3.8114
682.3,533,3.8114
683.7,533.5,3.8114
685.1,534,3.8114
686.5,534.5,3.8114
687.9,535,3.8114
689.3,535.5,3.8114
690.7,536,3.8114
692.1,536.5,3.8113
693.5,537,3.8106
694.9,537.5,3.8101
696.3,538,3.8091
697.7,538.5,3.8087
699.1,539,3.8087
700.4,539.5,3.8087
701.9,540,3.8087
703.3,540.5,3.8087
704.7,541,3.8074
706.1,541.5,3.8061
707.5,542,3.8061
708.8,542.5,3.8061
710.2,543,3.8061
711.6,543.5,3.8061
713,544,3.8047
714.4,544.5,3.8048
715.8,545,3.8048
717.2,545.5,3.8048
718.6,546,3.8044
720,546.5,3.8034
721.4,547,3.8032
722.8,547.5,3.802
724.2,548,3.802
725.6,548.5,3.802
727,549,3.8014
728.4,549.5,3.8007
729.8,550,3.8005
731.2,550.5,3.7994
732.6,551,3.7994
734,551.5,3.7995
735.4,552,3.7981
736.8,552.5,3.7981
738.2,553,3.7981
739.6,553.5,3.7967
741,554,3.7968
742.4,554.5,3.7955
743.8,555,3.7956
745.2,555.5,3.7945
746.6,556,3.7931
748,556.5,3.7927
749.4,557,3.7915
750.8,557.5,3.7905
752.2,558,3.7901
753.6,558.5,3.7886
755,559,3.7879
756.4,559.5,3.7863
757.8,560,3.7854
759.2,560.5,3.785
760.6,561,3.7835
762,561.5,3.7821
763.4,562,3.7814
764.8,562.5,3.7801
766.2,563,3.7796
767.6,563.5,3.7786
769,564,3.7785
770.4,564.5,3.777
771.8,565,3.7753
773.2,565.5,3.7737
774.6,566,3.773
776,566.5,3.772
777.4,567,3.7705
778.8,567.5,3.7693
780.2,568,3.7677
781.6,568.5,3.7661
783,569,3.7649
784.4,569.5,3.7642
785.8,570,3.7629
787.2,570.5,3.7606
788.6,571,3.7593
790,571.5,3.7577
791.4,572,3.7569
792.8,572.5,3.7556
794.2,573,3.754
795.6,573.5,3.752
797,574,3.75
798.4,574.5,3.7485
799.8,575,3.7471
801.3,575.5,3.7454
802.7,576,3.744
804.1,576.5,3.7425
805.5,577,3.7409
806.9,577.5,3.7389
808.3,578,3.7368
809.7,578.5,3.7349
811.1,579,3.7333
812.5,579.5,3.7313
813.9,580,3.7296
815.3,580.5,3.7278
816.7,581,3.7262
818.1,581.5,3.7239
819.5,582,3.721
820.9,582.5,3.7188
822.3,583,3.7167
823.7,583.5,3.7144
825.1,584,3.7124
826.5,584.5,3.7107
827.9,585,3.7092
829.3,585.5,3.7073
830.7,586,3.7056
832.2,586.5,3.7032
833.6,587,3.7004
835,587.5,3.6984
836.4,588,3.696
837.8,588.5,3.6935
839.2,589,3.6911
840.6,589.5,3.6889
842,590,3.687
843.4,590.5,3.6844
844.8,591,3.6822
846.2,591.5,3.6789
847.6,592,3.6754
849,592.5,3.6732
850.4,593,3.6709
851.8,593.5,3.6678
853.2,594,3.6643
854.6,594.5,3.6618
856.1,595,3.6587
857.5,595.5,3.6559
858.9,596,3.6529
860.3,596.5,3.6502
861.7,597,3.6467
863.1,597.5,3.6433
864.5,598,3.6396
865.9,598.5,3.6355
867.3,599,3.6312
868.7,599.5,3.6276
870.1,600,3.6239
871.5,600.5,3.6198
872.9,601,3.6168
874.4,601.5,3.6122
875.8,602,3.6088
877.2,602.5,3.6029
878.6,603,3.5986
880,603.5,3.5934
881.4,604,3.5894
882.8,604.5,3.5845
884.2,605,3.5797
885.7,605.5,3.5731
887.1,606,3.5674
888.5,606.5,3.5616
889.9,607,3.5565
891.3,607.5,3.5504
892.7,608,3.5429
894.1,608.5,3.537
895.5,609,3.5301
896.9,609.5,3.5235
898.3,610,3.5163
899.8,610.5,3.5087
901.2,611,3.5007
902.6,611.5,3.4925
904,612,3.4849
905.4,612.5,3.4765
906.9,613,3.4679
908.3,613.5,3.4586
909.7,614,3.4482
911.1,614.5,3.4394
912.5,615,3.4291
914,615.5,3.4203
915.4,616,3.4102
916.8,616.5,3.3985
918.3,617,3.3886
919.7,617.5,3.3769
921.1,618,3.3651
922.5,618.5,3.3531
924,619,3.3393
925.4,619.5,3.3281
926.8,620,3.3144
928.2,620.5,3.3012
929.7,621,3.2878
931.1,621.5,3.2726
932.5,622,3.2596
933.9,622.5,3.2436
935.4,623,3.2285
936.8,623.5,3.2111
938.2,624,3.1937
939.7,624.5,3.1786
941.1,625,3.1603
942.5,625.5,3.1434
944,626,3.1252
945.4,626.5,3.1052
946.8,627,3.0874
948.3,627.5,3.0666
949.7,628,3.0484
951.1,628.5,3.0276
952.6,629,3.0049
954,629.5,2.985
955.4,630,2.9614
956.9,630.5,2.9397
958.3,631,2.9161
959.7,631.5,2.8918
961.2,632,2.8701
962.6,632.5,2.8433
964.1,633,2.82
965.5,633.5,2.7949
966.9,634,2.7678
968.4,634.5,2.743
969.8,635,2.7137
971.2,635.5,2.6889
972.7,636,2.6608
974.1,636.5,2.6301
975.6,637,2.6037
977,637.5,2.5726
978.5,638,2.5453
979.9,638.5,2.5144
981.3,639,2.4823
982.8,639.5,2.4543
984.2,640,2.4207
985.7,640.5,2.3916
987.1,641,2.3592
988.5,641.5,2.3257
990,642,2.296
991.4,642.5,2.2604
992.9,643,2.2296
994.3,643.5,2.1957
995.8,644,2.1594
997.2,644.5,2.1278
998.6,645,2.0911
1000.1,645.5,2.0596
1001.5,646,2.0255
1003,646.5,1.9893
1004.4,647,1.9576
1005.9,647.5,1.9196
1007.3,648,1.8872
1008.7,648.5,1.8526
1010.2,649,1.8163
1011.6,649.5,1.7847
1013,650,1.7469
1014.5,650.5,1.7141
1015.9,651,1.6786
1017.4,651.5,1.6417
1018.8,652,1.6095
1020.2,652.5,1.5724
1021.7,653,1.5415
1023.1,653.5,1.5069
1024.5,654,1.47
1026,654.5,1.4367
1027.4,655,1.4006
1028.8,655.5,1.3697
1030.3,656,1.3353
1031.7,656.5,1.3009
1033.1,657,1.2701
1034.5,657.5,1.2341
1036,658,1.2042
1037.4,658.5,1.1714
1038.8,659,1.1396
1040.2,659.5,1.1095
1041.7,660,1.075
1043.1,660.5,1.0475
1044.5,661,1.0165
1045.9,661.5,0.9874
1047.3,662,0.9594
1048.7,662.5,0.9278
1050.2,663,0.9019
1051.6,663.5,0.8731
1053,664,0.8473
1054.4,664.5,0.82
1055.8,665,0.791
1057.3,665.5,0.7676
1058.7,666,0.7404
1060.1,666.5,0.718
1061.5,667,0.6932
1062.9,667.5,0.6689
1064.3,668,0.6477
1065.7,668.5,0.6236
1067.1,669,0.6034
1068.5,669.5,0.5813
1070,670,0.5604
1071.4,670.5,0.5411
1072.8,671,0.5196
1074.2,671.5,0.504
1075.6,672,0.4848
1077,672.5,0.4675
1078.4,673,0.4491
1079.8,673.5,0.4305
1081.2,674,0.4157
1082.6,674.5,0.3983
1084,675,0.3841
1085.4,675.5,0.3685
1086.9,676,0.3535
1088.3,676.5,0.3404
1089.7,677,0.3256
1091.1,677.5,0.314
1092.5,678,0.3012
1093.9,678.5,0.2889
1095.3,679,0.2771
1096.7,679.5,0.2649
1098.1,680,0.254
1099.5,680.5,0.2425
1100.9,681,0.2336
1102.4,681.5,0.2239
1103.8,682,0.2139
1105.2,682.5,0.2057
1106.6,683,0.1965
1108,683.5,0.1892
1109.4,684,0.1819
1110.8,684.5,0.174
1112.2,685,0.1679
1113.6,685.5,0.161
1115,686,0.1553
1116.4,686.5,0.1481
1117.9,687,0.1413
1119.3,687.5,0.1357
1120.7,688,0.1306
1122.1,688.5,0.1252
1123.5,689,0.1207
1125,689.5,0.1148
1126.4,690,0.1103
1127.8,690.5,0.1063
1129.2,691,0.103
1130.7,691.5,0.0983
1132.1,692,0.0945
1133.5,692.5,0.0916
1134.9,693,0.0886
1136.3,693.5,0.0858
1137.8,694,0.0829
1139.2,694.5,0.0801
1140.6,695,0.0774
1142,695.5,0.0748
1143.5,696,0.0727
1144.9,696.5,0.0704
1146.3,697,0.0675
1147.7,697.5,0.0658
1149.2,698,0.0642
1150.6,698.5,0.0625
1152,699,0.0611
1153.5,699.5,0.0598
1154.9,700,0.0581
1156.3,700.5,0.0565
1157.7,701,0.0548
1159.2,701.5,0.0537
1160.6,702,0.0533
1162,702.5,0.0518
1163.5,703,0.0517
1164.9,703.5,0.0503
1166.3,704,0.0486
1167.8,704.5,0.0484
1169.2,705,0.0471
1170.6,705.5,0.0461
1172.1,706,0.0458
1173.5,706.5,0.0445
1174.9,707,0.0432
1176.4,707.5,0.0426
1177.8,708,0.0418
1179.2,708.5,0.0415
1180.7,709,0.0409
1182.1,709.5,0.0418
1183.6,710,0.0419
1185,710.5,0.0405
1186.4,711,0.0397
1187.9,711.5,0.0385
1189.3,712,0.0382
1190.7,712.5,0.0376
1192.2,713,0.0368
1193.6,713.5,0.0369
1195.1,714,0.0356
1196.5,714.5,0.0355
1198,715,0.0355
1199.4,715.5,0.0355
1200.8,716,0.0355
1202.3,716.5,0.0355
1203.7,717,0.0355
1205.2,717.5,0.0342
1206.6,718,0.0339
1208,718.5,0.0339
1209.5,719,0.0339
1210.9,719.5,0.0339
1212.4,720,0.0339
1213.8,720.5,0.0339
1215.3,721,0.0339
1216.7,721.5,0.0339
1218.1,722,0.0339
1219.6,722.5,0.0339
1221,723,0.0332
1222.5,723.5,0.0326
1223.9,724,0.0326
1225.4,724.5,0.0335
1226.8,725,0.0339
1228.3,725.5,0.0346
1229.7,726,0.0352
1231.2,726.5,0.0352
1232.6,727,0.0352
1234.1,727.5,0.0353
1235.5,728,0.0339
1237,728.5,0.0335
1238.4,729,0.0336
1239.9,729.5,0.0335
1241.3,730,0.0327
1242.8,730.5,0.0326
1244.2,731,0.0326
1245.7,731.5,0.0326
1247.1,732,0.0326
1248.6,732.5,0.0326
1250,733,0.0333
1251.5,733.5,0.0332
1252.9,734,0.0332
1254.4,734.5,0.0332
1255.8,735,0.0332
1257.3,735.5,0.0332
1258.7,736,0.0332
1260.2,736.5,0.0332
1261.6,737,0.0332
1263.1,737.5,0.0332
1264.5,738,0.0332
1266,738.5,0.0332
1267.4,739,0.0332
1268.9,739.5,0.0332
1270.3,740,0.0332
1271.8,740.5,0.0332
1273.3,741,0.0332
1274.7,741.5,0.0324
1276.2,742,0.0319
1277.6,742.5,0.0319
1279.1,743,0.0319
1280.5,743.5,0.0319
1282,744,0.0319
1283.4,744.5,0.0319
1284.9,745,0.0319
1286.4,745.5,0.0319
1287.8,746,0.033
1289.3,746.5,0.0332
1290.8,747,0.0332
1292.2,747.5,0.0332
1293.7,748,0.0336
1295.1,748.5,0.0339
1296.6,749,0.0339
1298,749.5,0.0339
1299.5,750,0.0339
1301,750.5,0.0339
1302.4,751,0.0332
1303.9,751.5,0.0326
1305.4,752,0.0325
1306.8,752.5,0.0316
1308.3,753,0.0313
1309.7,753.5,0.0313
1311.2,754,0.0315
1312.7,754.5,0.0333
1314.1,755,0.0339
1315.6,755.5,0.0339
1317,756,0.0339
1318.5,756.5,0.0339
1320,757,0.0339
1321.4,757.5,0.0335
1322.9,758,0.032
1324.4,758.5,0.0316
1325.8,759,0.0316
1327.3,759.5,0.0316
1328.7,760,0.0316
1330.2,760.5,0.0316
1331.7,761,0.0324
1333.1,761.5,0.0329
1334.6,762,0.0329
1336.1,762.5,0.0332
1337.5,763,0.0334
1339,763.5,0.0322
1340.5,764,0.0322
1341.9,764.5,0.0322
1343.4,765,0.0322
1344.9,765.5,0.0323
1346.3,766,0.0323
1347.8,766.5,0.032
1349.3,767,0.0309
1350.7,767.5,0.0309
1352.2,768,0.0309
1353.7,768.5,0.0309
1355.1,769,0.0309
1356.6,769.5,0.0309
1358.1,770,0.0322
1359.5,770.5,0.0322
1361,771,0.0322
1362.5,771.5,0.0334
1363.9,772,0.0325
1365.4,772.5,0.0326
1366.9,773,0.0326
1368.3,773.5,0.0326
1369.8,774,0.0319
1371.3,774.5,0.0319
1372.7,775,0.0319
1374.2,775.5,0.0319
1375.6,776,0.0319
1377.1,776.5,0.0319
1378.6,777,0.0319
1380,777.5,0.0319
1381.5,778,0.0319
1383,778.5,0.0319
1384.4,779,0.0319
1385.9,779.5,0.0319
1387.4,780,0.0319
1388.8,780.5,0.0319
1390.3,781,0.0319
1391.8,781.5,0.032
1393.2,782,0.0313
1394.7,782.5,0.0313
1396.2,783,0.0313
1397.6,783.5,0.0313
1399.1,784,0.0313
1400.6,784.5,0.0313
1402,785,0.0313
1403.5,785.5,0.0313
1405,786,0.0313
1406.5,786.5,0.0313
1407.9,787,0.0313
1409.4,787.5,0.0313
1410.9,788,0.0315
1412.3,788.5,0.0322
1413.8,789,0.0322
1415.3,789.5,0.0322
1416.7,790,0.0322
1418.2,790.5,0.0322
1419.7,791,0.0322
1421.1,791.5,0.0322
1422.6,792,0.0322
1424.1,792.5,0.0322
1425.6,793,0.0322
1427,793.5,0.0322
1428.5,794,0.0322
1430,794.5,0.0322
1431.4,795,0.0322
1432.9,795.5,0.0322
1434.3,796,0.0322
1435.8,796.5,0.0322
1437.3,797,0.0322
1438.8,797.5,0.0322
1440.3,798,0.0322
1441.7,798.5,0.0322
1443.2,799,0.0322
1444.7,799.5,0.0322
1446.2,800,0.0322
1447.6,800.5,0.0322
1449.1,801,0.0322
1450.6,801.5,0.0322
1452,802,0.0322
1453.5,802.5,0.0322
1455,803,0.0322
1456.5,803.5,0.0322
1457.9,804,0.032
1459.4,804.5,0.0313
1460.9,805,0.0313
1462.3,805.5,0.0313
1463.8,806,0.0313
1465.3,806.5,0.0312
1466.7,807,0.0323
1468.2,807.5,0.0326
1469.7,808,0.0326
1471.2,808.5,0.0326
1472.7,809,0.0326
1474.1,809.5,0.0326
1475.6,810,0.0326
1477.1,810.5,0.0328
1478.5,811,0.0335
1480,811.5,0.0336
1481.5,812,0.0336
1482.9,812.5,0.0336
1484.4,813,0.0336
1485.9,813.5,0.0336
1487.4,814,0.0336
1488.8,814.5,0.0336
1490.3,815,0.0323
1491.8,815.5,0.0322
1493.3,816,0.0322
1494.7,816.5,0.0322
1496.2,817,0.0322
1497.7,817.5,0.0322
