Time,Temperature,Mass
[s],[K],[mg]
1200.1002,306.94,1.00E-03
1245.1818,307.04,3.06E-03
1257.1068,307.14,2.00E-03
1264.7556,307.24,7.18E-04
1270.3572,307.34,1.53E-03
1274.9838,307.44,3.04E-03
1278.9606,307.54,1.52E-03
1282.2702,307.64,3.98E-03
1285.3854,307.74,4.08E-03
1288.1346,307.84,2.92E-03
1290.6624,307.94,4.19E-03
1292.9154,308.04,2.01E-03
1294.9896,308.14,2.15E-03
1296.9726,308.24,2.51E-03
1298.7336,308.34,3.94E-03
1300.4508,308.44,2.29E-03
1302.2136,308.54,4.49E-03
1303.854,308.64,3.98E-03
1305.4332,308.74,3.66E-03
1306.8948,308.84,3.98E-03
1308.3504,308.94,2.42E-03
1309.6764,309.04,3.91E-03
1310.9532,309.14,3.65E-03
1312.224,309.24,3.30E-03
1313.4822,309.34,3.03E-03
1314.7002,309.44,3.00E-03
1315.8588,309.54,2.14E-03
1316.9334,309.64,3.92E-03
1318.002,309.74,3.52E-03
1319.0538,309.84,1.99E-03
1320.0744,309.94,4.94E-03
1321.068,310.04,1.99E-03
1322.0376,310.14,4.65E-03
1322.9928,310.24,2.59E-03
1323.927,310.34,1.14E-03
1324.8402,310.44,3.67E-03
1325.7288,310.54,1.92E-03
1326.6036,310.64,1.87E-03
1327.4922,310.74,2.95E-03
1328.3436,310.84,3.85E-03
1329.1884,310.94,2.22E-03
1329.9906,311.04,2.09E-03
1330.7802,311.14,9.95E-04
1331.5482,311.24,2.64E-03
1332.2922,311.34,1.02E-03
1333.0212,311.44,1.06E-03
1333.7544,311.54,2.11E-04
1334.4822,311.64,5.14E-05
1335.201,311.74,9.81E-04
1335.9348,311.84,1.85E-03
1336.6428,311.94,3.02E-03
1337.325,312.04,1.71E-04
1338.0168,312.14,2.06E-03
1338.6726,312.24,9.20E-04
1339.3374,312.34,1.03E-04
1340.0058,312.44,1.33E-03
1340.6388,312.54,1.89E-03
1341.2856,312.64,1.02E-03
1341.8976,312.74,1.99E-03
1342.5054,312.84,5.74E-06
1343.1192,312.94,1.89E-03
1343.7216,313.04,1.11E-03
1344.3168,313.14,2.03E-03
1344.9192,313.24,8.43E-04
1345.5054,313.34,3.01E-03
1346.0796,313.44,1.89E-03
1346.6502,313.54,9.98E-04
1347.2106,313.64,2.05E-03
1347.7596,313.74,1.54E-03
1348.3086,313.84,2.00E-03
1348.8636,313.94,3.09E-03
1349.4072,314.04,2.93E-03
1349.9556,314.14,1.20E-03
1350.4902,314.24,1.96E-03
1351.0152,314.34,2.47E-03
1351.5258,314.44,1.11E-03
1352.0376,314.54,1.70E-03
1352.5398,314.64,2.97E-03
1353.0432,314.74,1.34E-03
1353.5376,314.84,1.15E-03
1354.0404,314.94,2.79E-03
1354.5324,315.04,3.88E-03
1355.0202,315.14,1.67E-03
1355.5038,315.24,2.00E-03
1355.9922,315.34,1.75E-03
1356.4584,315.44,2.98E-03
1356.9336,315.54,3.03E-03
1357.4004,315.64,1.90E-03
1357.8582,315.74,1.33E-03
1358.3178,315.84,1.10E-03
1358.7744,315.94,1.21E-03
1359.2316,316.04,2.52E-03
1359.681,316.14,2.01E-03
1360.1274,316.24,2.03E-03
1360.5768,316.34,1.26E-03
1361.0136,316.44,1.49E-03
1361.4516,316.54,2.71E-04
1361.8914,316.64,1.01E-03
1362.3228,316.74,6.09E-05
1362.7572,316.84,1.23E-03
1363.185,316.94,7.22E-04
1363.608,317.04,2.16E-03
1364.0238,317.14,1.07E-03
1364.4414,317.24,5.14E-04
1364.8578,317.34,1.80E-03
1365.2658,317.44,1.67E-03
1365.6672,317.54,3.13E-03
1366.0752,317.64,1.83E-03
1366.4874,317.74,2.03E-03
1366.887,317.84,1.93E-03
1367.2788,317.94,2.03E-03
1367.667,318.04,1.78E-03
1368.06,318.14,1.99E-03
1368.453,318.24,1.60E-03
1368.834,318.34,1.83E-03
1369.2114,318.44,6.30E-04
1369.5918,318.54,-2.13E-04
1369.962,318.64,5.50E-04
1370.3382,318.74,-1.30E-05
1370.7108,318.84,1.78E-05
1371.081,318.94,-9.59E-04
1371.4524,319.04,1.08E-04
1371.813,319.14,9.70E-04
1372.1718,319.24,1.18E-03
1372.5384,319.34,1.01E-03
1372.8972,319.44,1.00E-03
1373.2542,319.54,1.78E-03
1373.607,319.64,1.38E-03
1373.9562,319.74,6.08E-04
1374.3102,319.84,1.98E-03
1374.6654,319.94,9.00E-04
1375.0194,320.04,1.34E-03
1375.3662,320.14,1.56E-04
1375.7172,320.24,9.70E-05
1376.0652,320.34,2.29E-04
1376.4132,320.44,-2.10E-04
1376.754,320.54,1.15E-03
1377.099,320.64,2.01E-03
1377.4374,320.74,3.80E-04
1377.7764,320.84,7.12E-04
1378.1118,320.94,-3.86E-05
1378.446,321.04,8.12E-04
1378.7778,321.14,2.08E-03
1379.109,321.24,-3.46E-05
1379.4408,321.34,1.34E-03
1379.763,321.44,2.35E-05
1380.0882,321.54,9.54E-04
1380.408,321.64,2.02E-04
1380.7284,321.74,1.02E-03
1381.047,321.84,1.67E-03
1381.3686,321.94,1.36E-04
1381.6878,322.04,2.40E-06
1382.0082,322.14,-2.18E-04
1382.3274,322.24,1.00E-03
1382.6424,322.34,1.62E-03
1382.9562,322.44,1.53E-05
1383.2682,322.54,8.65E-04
1383.5778,322.64,2.43E-03
1383.8856,322.74,1.08E-03
1384.1928,322.84,2.64E-04
1384.4964,322.94,1.01E-03
1384.8048,323.04,1.37E-03
1385.106,323.14,3.00E-03
1385.4084,323.24,9.51E-04
1385.7084,323.34,7.55E-05
1386.0066,323.44,2.13E-03
1386.3024,323.54,2.01E-03
1386.5976,323.64,2.80E-03
1386.8946,323.74,2.22E-05
1387.1868,323.84,1.75E-03
1387.4808,323.94,1.99E-03
1387.7772,324.04,1.77E-03
1388.0724,324.14,1.18E-03
1388.3718,324.24,1.73E-03
1388.6646,324.34,2.01E-03
1388.955,324.44,3.42E-04
1389.246,324.54,1.16E-03
1389.5346,324.64,3.03E-03
1389.822,324.74,2.15E-03
1390.1058,324.84,1.45E-05
1390.3878,324.94,1.22E-03
1390.6698,325.04,1.71E-03
1390.9458,325.14,2.25E-03
1391.226,325.24,1.60E-03
1391.5104,325.34,1.96E-03
1391.7888,325.44,7.41E-04
1392.066,325.54,1.10E-03
1392.3432,325.64,1.68E-03
1392.6186,325.74,1.06E-03
1392.894,325.84,1.98E-03
1393.1682,325.94,2.09E-03
1393.4424,326.04,6.11E-04
1393.716,326.14,1.13E-03
1393.986,326.24,2.24E-03
1394.2554,326.34,1.92E-03
1394.5206,326.44,4.45E-05
1394.7876,326.54,1.79E-03
1395.0528,326.64,1.17E-03
1395.324,326.74,-9.38E-04
1395.5904,326.84,1.03E-03
1395.855,326.94,2.79E-03
1396.1172,327.04,9.36E-04
1396.3794,327.14,2.27E-03
1396.6422,327.24,1.21E-03
1396.9062,327.34,9.92E-04
1397.1714,327.44,1.74E-03
1397.4312,327.54,2.42E-03
1397.6922,327.64,2.03E-03
1397.9454,327.74,1.39E-03
1398.1998,327.84,2.18E-03
1398.456,327.94,1.03E-03
1398.7104,328.04,6.04E-05
1398.9672,328.14,1.48E-03
1399.2222,328.24,1.09E-03
1399.4766,328.34,1.97E-03
1399.7274,328.44,2.82E-03
1399.98,328.54,1.36E-03
1400.2338,328.64,4.99E-04
1400.4882,328.74,1.90E-03
1400.7402,328.84,2.21E-03
1400.9898,328.94,2.09E-03
1401.2418,329.04,1.85E-03
1401.4896,329.14,2.68E-05
1401.7332,329.24,2.14E-03
1401.981,329.34,2.51E-03
1402.2258,329.44,1.65E-03
1402.4658,329.54,1.92E-03
1402.7094,329.64,1.04E-03
1402.947,329.74,2.80E-03
1403.1882,329.84,8.84E-04
1403.4336,329.94,9.81E-05
1403.6766,330.04,1.90E-03
1403.9184,330.14,1.09E-03
1404.1602,330.24,2.68E-03
1404.402,330.34,8.96E-04
1404.6396,330.44,6.44E-05
1404.8802,330.54,1.91E-03
1405.1208,330.64,1.04E-03
1405.3596,330.74,1.48E-03
1405.5984,330.84,7.52E-04
1405.8342,330.94,2.12E-03
1406.0688,331.04,2.17E-03
1406.3022,331.14,2.75E-06
1406.5368,331.24,2.00E-03
1406.7708,331.34,1.34E-03
1407.0036,331.44,8.89E-04
1407.237,331.54,1.28E-03
1407.468,331.64,2.03E-03
1407.702,331.74,1.99E-03
1407.933,331.84,1.82E-04
1408.164,331.94,1.62E-03
1408.392,332.04,2.42E-04
1408.623,332.14,8.64E-04
1408.851,332.24,2.78E-03
1409.0784,332.34,1.13E-03
1409.3064,332.44,2.00E-03
1409.5332,332.54,1.11E-03
1409.7588,332.64,1.49E-03
1409.985,332.74,5.84E-04
1410.2088,332.84,2.18E-03
1410.432,332.94,2.23E-03
1410.6552,333.04,1.68E-04
1410.882,333.14,1.88E-03
1411.104,333.24,9.82E-04
1411.326,333.34,9.44E-04
1411.548,333.44,-2.06E-04
1411.7694,333.54,6.53E-04
1411.9896,333.64,2.30E-03
1412.2086,333.74,1.40E-03
1412.4282,333.84,9.53E-04
1412.646,333.94,9.44E-04
1412.8674,334.04,1.19E-03
1413.087,334.14,-9.85E-04
1413.3042,334.24,1.03E-03
1413.5202,334.34,1.08E-03
1413.7368,334.44,1.75E-03
1413.9522,334.54,7.50E-05
1414.1658,334.64,7.52E-04
1414.3788,334.74,4.40E-04
1414.5942,334.84,1.69E-05
1414.8084,334.94,-1.04E-04
1415.0232,335.04,1.14E-03
1415.2368,335.14,1.23E-03
1415.4492,335.24,-7.82E-04
1415.661,335.34,7.20E-04
1415.8728,335.44,6.42E-05
1416.0858,335.54,1.02E-03
1416.2982,335.64,-9.93E-04
1416.5088,335.74,2.08E-05
1416.7188,335.84,1.61E-04
1416.933,335.94,1.87E-03
1417.1406,336.04,3.19E-06
1417.3494,336.14,8.68E-04
1417.5564,336.24,2.44E-04
1417.764,336.34,4.85E-04
1417.9704,336.44,-8.80E-04
1418.175,336.54,-3.13E-05
1418.3808,336.64,9.10E-04
1418.5866,336.74,1.34E-03
1418.7924,336.84,-1.09E-04
1418.9988,336.94,-6.66E-04
1419.2046,337.04,1.21E-04
1419.4086,337.14,1.74E-04
1419.6138,337.24,-1.45E-03
1419.8184,337.34,2.68E-04
1420.0218,337.44,1.17E-03
1420.2258,337.54,8.85E-04
1420.4268,337.64,1.30E-03
1420.6296,337.74,-6.02E-04
1420.833,337.84,3.82E-04
1421.0352,337.94,3.22E-04
1421.2356,338.04,7.84E-04
1421.436,338.14,-2.61E-04
1421.6376,338.24,-1.38E-03
1421.8374,338.34,5.20E-04
1422.036,338.44,9.53E-04
1422.2352,338.54,1.92E-03
1422.4356,338.64,5.28E-04
1422.633,338.74,6.67E-04
1422.831,338.84,3.05E-04
1423.0308,338.94,6.58E-04
1423.2294,339.04,5.12E-04
1423.4268,339.14,-3.89E-04
1423.626,339.24,1.57E-03
1423.8222,339.34,7.96E-04
1424.0184,339.44,3.85E-04
1424.2134,339.54,1.17E-03
1424.4078,339.64,8.88E-04
1424.6028,339.74,1.26E-03
1424.796,339.84,-1.42E-04
1424.9868,339.94,-3.69E-04
1425.1806,340.04,1.30E-03
1425.3738,340.14,7.99E-04
1425.5658,340.24,1.48E-03
1425.759,340.34,1.52E-03
1425.9504,340.44,-2.06E-05
1426.1406,340.54,1.19E-03
1426.3308,340.64,8.42E-04
1426.5222,340.74,-3.76E-05
1426.7106,340.84,-1.76E-05
1426.902,340.94,1.49E-05
1427.0922,341.04,1.99E-03
1427.2818,341.14,1.88E-04
1427.4714,341.24,-1.85E-04
1427.6634,341.34,1.06E-03
1427.8542,341.44,-6.71E-04
1428.0432,341.54,-3.41E-04
1428.2316,341.64,-7.98E-05
1428.4206,341.74,1.15E-03
1428.609,341.84,2.42E-03
1428.7962,341.94,9.66E-04
1428.9822,342.04,-1.27E-04
1429.1694,342.14,-2.18E-04
1429.3572,342.24,-1.28E-03
1429.5432,342.34,-5.02E-04
1429.7304,342.44,8.71E-04
1429.9182,342.54,-1.06E-03
1430.1048,342.64,2.72E-05
1430.289,342.74,3.92E-05
1430.4732,342.84,-1.79E-04
1430.6592,342.94,1.84E-03
1430.8434,343.04,6.25E-04
1431.0264,343.14,-2.03E-04
1431.2106,343.24,7.00E-05
1431.3948,343.34,-4.24E-05
1431.579,343.44,8.21E-05
1431.762,343.54,-2.64E-04
1431.9438,343.64,-1.14E-03
1432.1262,343.74,-8.82E-04
1432.3098,343.84,2.59E-05
1432.4904,343.94,7.53E-06
1432.6716,344.04,-1.21E-06
1432.8528,344.14,-2.73E-05
1433.0358,344.24,1.26E-04
1433.217,344.34,-6.87E-04
1433.3982,344.44,-6.79E-04
1433.5794,344.54,3.51E-04
1433.7594,344.64,-6.93E-04
1433.94,344.74,-1.84E-03
1434.1224,344.84,1.72E-04
1434.3018,344.94,-1.19E-05
1434.483,345.04,-9.69E-04
1434.6618,345.14,-8.99E-04
1434.8394,345.24,-1.95E-03
1435.0194,345.34,-7.73E-04
1435.1988,345.44,-1.89E-04
1435.377,345.54,-1.38E-03
1435.5552,345.64,-3.60E-04
1435.731,345.74,8.97E-04
1435.9074,345.84,-1.06E-03
1436.0856,345.94,-1.05E-03
1436.2632,346.04,-8.45E-04
1436.4396,346.14,-1.97E-03
1436.6142,346.24,-8.29E-04
1436.7882,346.34,-1.57E-04
1436.9634,346.44,-1.27E-03
1437.1398,346.54,-7.22E-04
1437.3162,346.64,-6.82E-05
1437.4926,346.74,-1.93E-03
1437.666,346.84,-2.26E-03
1437.8418,346.94,-3.85E-04
1438.0164,347.04,-4.16E-04
1438.1892,347.14,-1.20E-03
1438.3638,347.24,-8.50E-04
1438.539,347.34,-1.26E-03
1438.7112,347.44,-1.94E-03
1438.8846,347.54,-8.40E-05
1439.0586,347.64,-6.95E-04
1439.232,347.74,-1.28E-03
1439.4066,347.84,-2.38E-04
1439.5788,347.94,-5.97E-04
1439.7492,348.04,-2.34E-03
1439.9214,348.14,-1.79E-03
1440.0924,348.24,-2.40E-05
1440.2658,348.34,-7.88E-04
1440.4368,348.44,-1.15E-03
1440.6078,348.54,-8.06E-04
1440.7794,348.64,-1.54E-03
1440.9504,348.74,-1.69E-03
1441.1202,348.84,1.63E-04
1441.29,348.94,8.39E-05
1441.4598,349.04,-1.77E-03
1441.629,349.14,-1.51E-03
1441.7988,349.24,-6.99E-04
1441.9686,349.34,-1.50E-03
1442.1378,349.44,-1.78E-03
1442.3064,349.54,4.94E-05
1442.4756,349.64,1.17E-04
1442.6436,349.74,-7.85E-04
1442.8104,349.84,-1.08E-03
1442.9778,349.94,-9.74E-04
1443.1464,350.04,-1.01E-03
1443.3138,350.14,-9.95E-04
1443.4812,350.24,-9.82E-04
1443.6474,350.34,-1.13E-03
1443.8142,350.44,-3.08E-04
1443.9816,350.54,-2.83E-04
1444.1484,350.64,-1.12E-03
1444.3146,350.74,-9.86E-04
1444.4808,350.84,-9.93E-04
1444.6464,350.94,-1.01E-03
1444.812,351.04,-9.66E-04
1444.9782,351.14,-1.09E-03
1445.1438,351.24,-7.97E-04
1445.31,351.34,1.55E-05
1445.4744,351.44,-7.04E-05
1445.6388,351.54,9.04E-04
1445.8026,351.64,1.10E-04
1445.967,351.74,-1.33E-03
1446.1326,351.84,-7.98E-04
1446.2982,351.94,-4.12E-07
1446.4614,352.04,-7.48E-04
1446.6246,352.14,-1.37E-03
1446.789,352.24,8.70E-05
1446.9534,352.34,7.28E-04
1447.1166,352.44,-1.11E-03
1447.2786,352.54,-1.05E-03
1447.4412,352.64,-9.75E-04
1447.6038,352.74,-9.50E-04
1447.7658,352.84,-1.17E-03
1447.929,352.94,-7.26E-04
1448.0916,353.04,9.87E-04
1448.2524,353.14,-4.35E-04
1448.4138,353.24,-1.47E-03
1448.5746,353.34,-1.49E-04
1448.7342,353.44,1.01E-03
1448.8944,353.54,2.95E-05
1449.0552,353.64,-1.16E-04
1449.2148,353.74,2.32E-04
1449.3738,353.84,-6.62E-04
1449.5322,353.94,-2.21E-03
1449.693,354.04,-2.06E-03
1449.8532,354.14,-3.79E-04
1450.0128,354.24,1.96E-04
1450.1712,354.34,-1.19E-04
1450.3296,354.44,1.07E-04
1450.488,354.54,9.39E-04
1450.6464,354.64,1.28E-03
1450.8042,354.74,-1.75E-04
1450.9632,354.84,-9.35E-04
1451.1228,354.94,1.18E-04
1451.2806,355.04,9.34E-05
1451.439,355.14,-8.42E-04
1451.5974,355.24,-6.58E-04
1451.7552,355.34,2.35E-04
1451.9124,355.44,-9.38E-05
1452.0702,355.54,-1.74E-03
1452.2262,355.64,-2.37E-03
1452.3822,355.74,-1.16E-03
1452.5388,355.84,1.66E-04
1452.6954,355.94,1.11E-05
1452.8526,356.04,-1.04E-04
1453.0086,356.14,5.01E-04
1453.1646,356.24,1.26E-03
1453.3206,356.34,8.14E-04
1453.4772,356.44,-8.84E-04
1453.6308,356.54,-5.01E-04
1453.7862,356.64,2.69E-04
1453.9422,356.74,-2.51E-04
1454.0964,356.84,-9.99E-04
1454.2524,356.94,-2.96E-04
1454.4072,357.04,3.14E-04
1454.5614,357.14,-5.51E-04
1454.7156,357.24,-2.11E-03
1454.8704,357.34,-2.20E-03
1455.0246,357.44,-6.67E-04
1455.1794,357.54,1.97E-04
1455.3336,357.64,-3.29E-05
1455.4872,357.74,4.58E-07
1455.6396,357.84,-6.17E-05
1455.7926,357.94,2.37E-04
1455.9462,358.04,-4.83E-04
1456.0992,358.14,-2.00E-03
1456.2528,358.24,-5.33E-04
1456.404,358.34,3.47E-04
1456.5552,358.44,-2.95E-04
1456.7076,358.54,-1.03E-03
1456.8588,358.64,-1.15E-03
1457.0112,358.74,-3.07E-04
1457.163,358.84,-1.92E-04
1457.3148,358.94,-1.05E-03
1457.4666,359.04,-1.02E-03
1457.6178,359.14,-1.08E-03
1457.7678,359.24,-6.99E-04
1457.9184,359.34,5.28E-05
1458.069,359.44,4.31E-05
1458.2202,359.54,-8.07E-05
1458.3708,359.64,1.61E-04
1458.5202,359.74,-1.53E-04
1458.6702,359.84,-1.77E-03
1458.8196,359.94,-2.14E-03
1458.9684,360.04,-2.02E-03
1459.1178,360.14,-1.94E-03
1459.2672,360.24,-1.13E-03
1459.416,360.34,-9.43E-04
1459.5654,360.44,-9.43E-04
1459.7154,360.54,-1.06E-03
1459.863,360.64,-1.92E-03
1460.0112,360.74,-1.55E-03
1460.1594,360.84,-8.11E-04
1460.3082,360.94,-1.03E-03
1460.4552,361.04,-1.80E-03
1460.6028,361.14,-2.21E-03
1460.7504,361.24,-1.71E-03
1460.8968,361.34,-1.00E-03
1461.0444,361.44,-1.63E-03
1461.1926,361.54,-2.37E-03
1461.3402,361.64,-1.55E-03
1461.4878,361.74,-1.21E-05
1461.6354,361.84,-1.28E-03
1461.7824,361.94,-2.27E-03
1461.9288,362.04,-1.95E-03
1462.0752,362.14,-1.99E-03
1462.221,362.24,-2.00E-03
1462.3662,362.34,-2.04E-03
1462.512,362.44,-1.97E-03
1462.6584,362.54,-1.77E-03
1462.8036,362.64,-3.26E-03
1462.95,362.74,-3.75E-03
1463.097,362.84,-2.02E-03
1463.2434,362.94,-1.88E-03
1463.3904,363.04,-1.96E-03
1463.5368,363.14,-2.17E-03
1463.6814,363.24,-2.97E-03
1463.8254,363.34,-2.47E-03
1463.97,363.44,-1.77E-03
1464.1158,363.54,-2.08E-03
1464.2598,363.64,-2.93E-03
1464.4044,363.74,-2.58E-03
1464.5496,363.84,-1.83E-03
1464.6936,363.94,-1.98E-03
1464.8376,364.04,-2.69E-03
1464.9822,364.14,-3.26E-03
1465.1268,364.24,-2.80E-03
1465.2708,364.34,-1.26E-03
1465.4148,364.44,-6.13E-04
1465.5588,364.54,-1.58E-03
1465.7022,364.64,-3.01E-03
1465.845,364.74,-3.11E-03
1465.9866,364.84,-2.94E-03
1466.1288,364.94,-3.01E-03
1466.2728,365.04,-3.01E-03
1466.4162,365.14,-2.94E-03
1466.559,365.24,-3.12E-03
1466.7012,365.34,-2.99E-03
1466.8446,365.44,-1.54E-03
1466.9868,365.54,-6.02E-04
1467.129,365.64,-1.26E-03
1467.2718,365.74,-2.80E-03
1467.414,365.84,-3.17E-03
1467.5556,365.94,-2.95E-03
1467.6972,366.04,-3.00E-03
1467.8376,366.14,-3.02E-03
1467.9792,366.24,-2.97E-03
1468.1202,366.34,-3.03E-03
1468.26,366.44,-3.11E-03
1468.401,366.54,-2.39E-03
1468.5432,366.64,-2.09E-03
1468.6842,366.74,-2.93E-03
1468.824,366.84,-3.10E-03
1468.9638,366.94,-2.98E-03
1469.1048,367.04,-3.00E-03
1469.2446,367.14,-2.90E-03
1469.3844,367.24,-3.41E-03
1469.5242,367.34,-4.06E-03
1469.664,367.44,-4.03E-03
1469.8032,367.54,-3.99E-03
1469.9418,367.64,-3.98E-03
1470.0804,367.74,-3.98E-03
1470.219,367.84,-4.20E-03
1470.3576,367.94,-3.52E-03
1470.4974,368.04,-2.02E-03
1470.636,368.14,-1.65E-03
1470.7746,368.24,-2.76E-03
1470.9132,368.34,-4.07E-03
1471.0518,368.44,-4.09E-03
1471.1904,368.54,-3.97E-03
1471.329,368.64,-3.98E-03
1471.467,368.74,-3.94E-03
1471.6038,368.84,-4.46E-03
1471.7412,368.94,-5.18E-03
1471.8798,369.04,-5.13E-03
1472.0184,369.14,-3.76E-03
1472.1558,369.24,-2.82E-03
1472.292,369.34,-2.99E-03
1472.43,369.44,-2.94E-03
1472.5674,369.54,-3.28E-03
1472.7054,369.64,-4.02E-03
1472.8434,369.74,-4.15E-03
1472.9808,369.84,-3.63E-03
1473.1176,369.94,-2.92E-03
1473.255,370.04,-2.77E-03
1473.3918,370.14,-3.93E-03
1473.5286,370.24,-5.13E-03
1473.6636,370.34,-5.05E-03
1473.7998,370.44,-5.05E-03
1473.9366,370.54,-4.86E-03
1474.0728,370.64,-4.11E-03
1474.2096,370.74,-3.91E-03
1474.3458,370.84,-4.01E-03
1474.4814,370.94,-3.98E-03
1474.6164,371.04,-4.16E-03
1474.752,371.14,-3.67E-03
1474.8876,371.24,-2.97E-03
1475.0226,371.34,-4.18E-03
1475.1576,371.44,-5.24E-03
1475.2926,371.54,-5.02E-03
1475.427,371.64,-4.92E-03
1475.562,371.74,-5.08E-03
1475.697,371.84,-5.01E-03
1475.8308,371.94,-4.32E-03
1475.964,372.04,-3.89E-03
1476.0978,372.14,-4.00E-03
1476.2328,372.24,-4.05E-03
1476.366,372.34,-3.92E-03
1476.4992,372.44,-4.00E-03
1476.633,372.54,-4.70E-03
1476.7668,372.64,-5.10E-03
1476.8994,372.74,-5.00E-03
1477.0326,372.84,-5.03E-03
1477.1658,372.94,-4.88E-03
1477.3002,373.04,-5.00E-03
1477.4334,373.14,-6.33E-03
1477.5672,373.24,-7.36E-03
1477.701,373.34,-6.99E-03
1477.8342,373.44,-5.57E-03
1477.9674,373.54,-4.80E-03
1478.1,373.64,-5.00E-03
1478.2332,373.74,-5.04E-03
1478.3664,373.84,-4.98E-03
1478.499,373.94,-5.00E-03
1478.6316,374.04,-5.01E-03
1478.7642,374.14,-4.99E-03
1478.8974,374.24,-5.00E-03
1479.0306,374.34,-5.07E-03
1479.1626,374.44,-4.83E-03
1479.2934,374.54,-4.95E-03
1479.426,374.64,-6.52E-03
1479.5592,374.74,-6.68E-03
1479.6924,374.84,-5.07E-03
1479.8238,374.94,-4.79E-03
1479.9552,375.04,-5.07E-03
1480.0866,375.14,-5.01E-03
1480.2186,375.24,-4.99E-03
1480.35,375.34,-4.99E-03
1480.4808,375.44,-4.99E-03
1480.6128,375.54,-5.09E-03
1480.7442,375.64,-4.84E-03
1480.8756,375.74,-4.13E-03
1481.007,375.84,-3.70E-03
1481.139,375.94,-4.34E-03
1481.271,376.04,-5.78E-03
1481.4018,376.14,-6.20E-03
1481.532,376.24,-5.95E-03
1481.6628,376.34,-5.95E-03
1481.7954,376.44,-6.13E-03
1481.9274,376.54,-5.87E-03
1482.0576,376.64,-5.09E-03
1482.1872,376.74,-5.32E-03
1482.3168,376.84,-6.06E-03
1482.447,376.94,-6.08E-03
1482.5778,377.04,-5.94E-03
1482.7074,377.14,-6.01E-03
1482.837,377.24,-6.10E-03
1482.9672,377.34,-5.71E-03
1483.0974,377.44,-5.01E-03
1483.227,377.54,-4.81E-03
1483.3566,377.64,-5.29E-03
1483.4862,377.74,-5.96E-03
1483.6152,377.84,-6.03E-03
1483.7442,377.94,-6.06E-03
1483.8732,378.04,-6.12E-03
1484.0022,378.14,-5.03E-03
1484.1312,378.24,-3.79E-03
1484.2602,378.34,-3.74E-03
1484.3892,378.44,-4.93E-03
1484.5182,378.54,-6.09E-03
1484.6472,378.64,-6.10E-03
1484.7762,378.74,-5.95E-03
1484.904,378.84,-6.00E-03
1485.0324,378.94,-6.01E-03
1485.1614,379.04,-6.00E-03
1485.2898,379.14,-6.00E-03
1485.4188,379.24,-6.00E-03
1485.5472,379.34,-6.00E-03
1485.675,379.44,-6.00E-03
1485.8028,379.54,-6.02E-03
1485.9306,379.64,-5.98E-03
1486.0584,379.74,-5.94E-03
1486.1874,379.84,-6.23E-03
1486.3164,379.94,-5.85E-03
1486.4448,380.04,-4.29E-03
1486.572,380.14,-4.46E-03
1486.6998,380.24,-6.00E-03
1486.827,380.34,-6.20E-03
1486.9548,380.44,-5.93E-03
1487.082,380.54,-5.99E-03
1487.2092,380.64,-6.01E-03
1487.337,380.74,-6.01E-03
1487.4642,380.84,-6.02E-03
1487.592,380.94,-5.91E-03
1487.7192,381.04,-6.07E-03
1487.8452,381.14,-6.76E-03
1487.9718,381.24,-7.12E-03
1488.099,381.34,-7.00E-03
1488.2262,381.44,-6.91E-03
1488.3534,381.54,-7.14E-03
1488.48,381.64,-7.12E-03
1488.6066,381.74,-5.82E-03
1488.7326,381.84,-4.98E-03
1488.858,381.94,-5.74E-03
1488.9846,382.04,-6.16E-03
1489.1118,382.14,-5.99E-03
1489.239,382.24,-5.96E-03
1489.365,382.34,-6.04E-03
1489.4916,382.44,-6.01E-03
1489.6182,382.54,-5.86E-03
1489.7436,382.64,-6.23E-03
1489.8684,382.74,-6.95E-03
1489.9944,382.84,-6.63E-03
1490.121,382.94,-5.93E-03
1490.2476,383.04,-5.93E-03
1490.3736,383.14,-6.04E-03
1490.4996,383.24,-6.00E-03
1490.625,383.34,-5.97E-03
1490.7498,383.44,-6.04E-03
1490.8758,383.54,-6.04E-03
1491.0012,383.64,-5.77E-03
1491.1266,383.74,-6.23E-03
1491.2526,383.84,-7.69E-03
1491.3774,383.94,-7.85E-03
1491.5022,384.04,-6.99E-03
1491.6276,384.14,-6.88E-03
1491.7524,384.24,-7.04E-03
1491.8766,384.34,-7.01E-03
1492.0014,384.44,-6.99E-03
1492.1268,384.54,-7.01E-03
1492.2516,384.64,-7.02E-03
1492.3764,384.74,-6.95E-03
1492.5018,384.84,-7.00E-03
1492.6272,384.94,-7.22E-03
1492.7514,385.04,-6.54E-03
1492.8756,385.14,-5.17E-03
1493.0004,385.24,-4.85E-03
1493.1252,385.34,-4.98E-03
1493.25,385.44,-4.84E-03
1493.3748,385.54,-5.69E-03
1493.499,385.64,-6.99E-03
1493.6232,385.74,-7.17E-03
1493.7474,385.84,-6.94E-03
1493.8716,385.94,-6.98E-03
1493.9964,386.04,-7.04E-03
1494.12,386.14,-6.98E-03
1494.243,386.24,-6.89E-03
1494.366,386.34,-7.31E-03
1494.4902,386.44,-7.97E-03
1494.6138,386.54,-8.09E-03
1494.7374,386.64,-7.98E-03
1494.861,386.74,-7.99E-03
1494.9846,386.84,-8.00E-03
1495.1076,386.94,-8.00E-03
1495.23,387.04,-8.04E-03
1495.353,387.14,-7.91E-03
1495.4766,387.24,-7.91E-03
1495.6002,387.34,-8.70E-03
1495.7232,387.44,-8.89E-03
1495.8462,387.54,-7.53E-03
1495.9686,387.64,-6.76E-03
1496.091,387.74,-6.98E-03
1496.2134,387.84,-7.06E-03
1496.3352,387.94,-6.98E-03
1496.457,388.04,-6.99E-03
1496.5794,388.14,-7.03E-03
1496.7024,388.24,-7.00E-03
1496.8254,388.34,-6.89E-03
1496.9472,388.44,-7.20E-03
1497.069,388.54,-7.88E-03
1497.1908,388.64,-8.11E-03
1497.3132,388.74,-7.99E-03
1497.4344,388.84,-7.97E-03
1497.5562,388.94,-8.02E-03
1497.678,389.04,-8.02E-03
1497.7998,389.14,-7.90E-03
1497.9216,389.24,-8.08E-03
1498.0428,389.34,-8.74E-03
1498.1634,389.44,-9.12E-03
1498.284,389.54,-9.02E-03
1498.4058,389.64,-8.92E-03
1498.5276,389.74,-9.06E-03
1498.6488,389.84,-9.19E-03
1498.7706,389.94,-8.38E-03
1498.8924,390.04,-7.06E-03
1499.0142,390.14,-6.61E-03
1499.1354,390.24,-7.33E-03
1499.256,390.34,-8.66E-03
1499.3772,390.44,-9.20E-03
1499.4996,390.54,-9.00E-03
1499.6214,390.64,-8.96E-03
1499.7432,390.74,-9.01E-03
1499.8638,390.84,-9.00E-03
1499.9856,390.94,-9.00E-03
1500.1068,391.04,-9.00E-03
1500.2274,391.14,-8.97E-03
1500.348,391.24,-9.05E-03
1500.4692,391.34,-9.07E-03
1500.5904,391.44,-8.56E-03
1500.711,391.54,-7.97E-03
1500.8322,391.64,-7.93E-03
1500.9534,391.74,-8.03E-03
1501.074,391.84,-8.01E-03
1501.1946,391.94,-8.00E-03
1501.3152,392.04,-8.00E-03
1501.4358,392.14,-7.99E-03
1501.5558,392.24,-8.03E-03
1501.6758,392.34,-8.03E-03
1501.7958,392.44,-7.80E-03
1501.9164,392.54,-8.12E-03
1502.0358,392.64,-9.42E-03
1502.1552,392.74,-1.02E-02
1502.2752,392.84,-1.00E-02
1502.3952,392.94,-1.00E-02
1502.5152,393.04,-9.95E-03
1502.634,393.14,-9.30E-03
1502.7534,393.24,-8.91E-03
1502.8734,393.34,-8.99E-03
1502.9928,393.44,-8.93E-03
1503.1122,393.54,-9.04E-03
1503.2316,393.64,-9.68E-03
1503.351,393.74,-1.01E-02
1503.4698,393.84,-1.00E-02
1503.588,393.94,-9.97E-03
1503.7068,394.04,-1.00E-02
1503.8256,394.14,-1.00E-02
1503.9444,394.24,-1.00E-02
1504.0632,394.34,-1.00E-02
1504.1826,394.44,-9.89E-03
1504.3014,394.54,-1.00E-02
1504.4196,394.64,-1.07E-02
1504.5372,394.74,-1.09E-02
1504.6554,394.84,-1.02E-02
1504.7736,394.94,-9.86E-03
1504.8918,395.04,-9.99E-03
1505.0094,395.14,-1.00E-02
1505.1276,395.24,-9.99E-03
1505.2458,395.34,-9.99E-03
1505.3646,395.44,-1.00E-02
1505.4822,395.54,-1.00E-02
1505.5998,395.64,-9.90E-03
1505.7168,395.74,-1.01E-02
1505.8344,395.84,-1.07E-02
1505.9526,395.94,-1.11E-02
1506.0708,396.04,-1.10E-02
1506.1884,396.14,-1.11E-02
1506.3054,396.24,-1.10E-02
1506.4236,396.34,-1.04E-02
1506.5412,396.44,-9.91E-03
1506.6582,396.54,-9.96E-03
1506.7752,396.64,-1.00E-02
1506.8922,396.74,-1.00E-02
1507.0098,396.84,-1.00E-02
1507.1268,396.94,-9.97E-03
1507.2444,397.04,-9.90E-03
1507.3614,397.14,-1.03E-02
1507.479,397.24,-1.09E-02
1507.596,397.34,-1.11E-02
1507.713,397.44,-1.10E-02
1507.83,397.54,-1.10E-02
1507.947,397.64,-1.10E-02
1508.0634,397.74,-1.10E-02
1508.1804,397.84,-1.10E-02
1508.2968,397.94,-1.10E-02
1508.4138,398.04,-1.09E-02
1508.5296,398.14,-1.11E-02
1508.6454,398.24,-1.17E-02
1508.7618,398.34,-1.22E-02
1508.8788,398.44,-1.21E-02
1508.9952,398.54,-1.15E-02
1509.111,398.64,-1.10E-02
1509.2268,398.74,-1.09E-02
1509.3432,398.84,-1.10E-02
1509.459,398.94,-1.10E-02
1509.5748,399.04,-1.10E-02
1509.6906,399.14,-1.10E-02
1509.8076,399.24,-1.08E-02
1509.9234,399.34,-1.12E-02
1510.0392,399.44,-1.25E-02
1510.155,399.54,-1.32E-02
1510.2708,399.64,-1.31E-02
1510.3866,399.74,-1.29E-02
1510.5018,399.84,-1.30E-02
1510.617,399.94,-1.30E-02
1510.7322,400.04,-1.30E-02
1510.848,400.14,-1.30E-02
1510.9638,400.24,-1.30E-02
1511.079,400.34,-1.30E-02
1511.1948,400.44,-1.30E-02
1511.3106,400.54,-1.30E-02
1511.4252,400.64,-1.30E-02
1511.5398,400.74,-1.30E-02
1511.655,400.84,-1.31E-02
1511.7702,400.94,-1.27E-02
1511.886,401.04,-1.21E-02
1512.0012,401.14,-1.19E-02
1512.1164,401.24,-1.20E-02
1512.2316,401.34,-1.20E-02
1512.3462,401.44,-1.20E-02
1512.4602,401.54,-1.20E-02
1512.5742,401.64,-1.20E-02
1512.6882,401.74,-1.20E-02
1512.8028,401.84,-1.21E-02
1512.9174,401.94,-1.20E-02
1513.0314,402.04,-1.18E-02
1513.1454,402.14,-1.24E-02
1513.2594,402.24,-1.37E-02
1513.3734,402.34,-1.42E-02
1513.4874,402.44,-1.40E-02
1513.6014,402.54,-1.39E-02
1513.7154,402.64,-1.40E-02
1513.8288,402.74,-1.40E-02
1513.9428,402.84,-1.40E-02
1514.0568,402.94,-1.40E-02
1514.1708,403.04,-1.40E-02
1514.2842,403.14,-1.40E-02
1514.3982,403.24,-1.40E-02
1514.5128,403.34,-1.40E-02
1514.6262,403.44,-1.40E-02
1514.7402,403.54,-1.40E-02
1514.8542,403.64,-1.40E-02
1514.9676,403.74,-1.40E-02
1515.081,403.84,-1.40E-02
1515.195,403.94,-1.40E-02
1515.3084,404.04,-1.40E-02
1515.4218,404.14,-1.40E-02
1515.5352,404.24,-1.40E-02
1515.6498,404.34,-1.40E-02
1515.7638,404.44,-1.40E-02
1515.8772,404.54,-1.40E-02
1515.9906,404.64,-1.40E-02
1516.104,404.74,-1.40E-02
1516.2162,404.84,-1.42E-02
1516.329,404.94,-1.38E-02
1516.4418,405.04,-1.31E-02
1516.554,405.14,-1.34E-02
1516.6662,405.24,-1.47E-02
1516.779,405.34,-1.52E-02
1516.8918,405.44,-1.50E-02
1517.004,405.54,-1.49E-02
1517.1156,405.64,-1.50E-02
1517.2272,405.74,-1.50E-02
1517.3394,405.84,-1.50E-02
1517.451,405.94,-1.50E-02
1517.5632,406.04,-1.50E-02
1517.6754,406.14,-1.50E-02
1517.787,406.24,-1.50E-02
1517.8992,406.34,-1.50E-02
1518.0114,406.44,-1.50E-02
1518.123,406.54,-1.50E-02
1518.234,406.64,-1.50E-02
1518.345,406.74,-1.50E-02
1518.4566,406.84,-1.49E-02
1518.5676,406.94,-1.53E-02
1518.6792,407.04,-1.59E-02
1518.7914,407.14,-1.61E-02
1518.9036,407.24,-1.60E-02
1519.0152,407.34,-1.60E-02
1519.1268,407.44,-1.60E-02
1519.2384,407.54,-1.60E-02
1519.35,407.64,-1.60E-02
1519.461,407.74,-1.60E-02
1519.572,407.84,-1.60E-02
1519.6824,407.94,-1.60E-02
1519.794,408.04,-1.60E-02
1519.9056,408.14,-1.60E-02
1520.016,408.24,-1.60E-02
1520.1258,408.34,-1.60E-02
1520.2368,408.44,-1.60E-02
1520.3472,408.54,-1.59E-02
1520.4576,408.64,-1.59E-02
1520.5686,408.74,-1.63E-02
1520.679,408.84,-1.69E-02
1520.7894,408.94,-1.71E-02
1520.9004,409.04,-1.70E-02
1521.0108,409.14,-1.70E-02
1521.1212,409.24,-1.70E-02
1521.2316,409.34,-1.70E-02
1521.3414,409.44,-1.70E-02
1521.4518,409.54,-1.70E-02
1521.5622,409.64,-1.70E-02
1521.6726,409.74,-1.70E-02
1521.783,409.84,-1.70E-02
1521.8934,409.94,-1.70E-02
1522.0038,410.04,-1.70E-02
1522.1142,410.14,-1.70E-02
1522.2246,410.24,-1.69E-02
1522.3344,410.34,-1.71E-02
1522.4442,410.44,-1.78E-02
1522.554,410.54,-1.81E-02
1522.6644,410.64,-1.80E-02
1522.7748,410.74,-1.80E-02
1522.8852,410.84,-1.80E-02
1522.995,410.94,-1.80E-02
1523.1042,411.04,-1.80E-02
1523.214,411.14,-1.80E-02
1523.3238,411.24,-1.80E-02
1523.4342,411.34,-1.80E-02
1523.544,411.44,-1.80E-02
1523.6532,411.54,-1.80E-02
1523.763,411.64,-1.80E-02
1523.8722,411.74,-1.80E-02
1523.9808,411.84,-1.80E-02
1524.0894,411.94,-1.80E-02
1524.198,412.04,-1.80E-02
1524.3072,412.14,-1.80E-02
1524.4164,412.24,-1.79E-02
1524.525,412.34,-1.81E-02
1524.6342,412.44,-1.87E-02
1524.7428,412.54,-1.91E-02
1524.8514,412.64,-1.91E-02
1524.96,412.74,-1.90E-02
1525.0692,412.84,-1.90E-02
1525.1778,412.94,-1.90E-02
1525.2864,413.04,-1.90E-02
1525.3944,413.14,-1.90E-02
1525.503,413.24,-1.90E-02
1525.6122,413.34,-1.90E-02
1525.7202,413.44,-1.90E-02
1525.8282,413.54,-1.90E-02
1525.9362,413.64,-1.90E-02
1526.0436,413.74,-1.90E-02
1526.1522,413.84,-1.90E-02
1526.2602,413.94,-1.90E-02
1526.3688,414.04,-1.90E-02
1526.4774,414.14,-1.90E-02
1526.586,414.24,-1.90E-02
1526.694,414.34,-1.90E-02
1526.802,414.44,-1.89E-02
1526.9094,414.54,-1.90E-02
1527.0174,414.64,-1.96E-02
1527.1254,414.74,-2.01E-02
1527.2334,414.84,-2.01E-02
1527.3414,414.94,-2.00E-02
1527.45,415.04,-2.00E-02
1527.558,415.14,-2.00E-02
1527.6654,415.24,-2.00E-02
1527.7734,415.34,-2.00E-02
1527.8814,415.44,-2.00E-02
1527.99,415.54,-2.00E-02
1528.098,415.64,-2.00E-02
1528.2048,415.74,-2.00E-02
1528.3122,415.84,-2.00E-02
1528.4202,415.94,-2.00E-02
1528.5282,416.04,-2.00E-02
1528.6362,416.14,-2.00E-02
1528.7436,416.24,-2.00E-02
1528.851,416.34,-2.00E-02
1528.9584,416.44,-2.00E-02
1529.0658,416.54,-2.00E-02
1529.1732,416.64,-1.98E-02
1529.2806,416.74,-1.99E-02
1529.388,416.84,-2.09E-02
1529.496,416.94,-2.20E-02
1529.6034,417.04,-2.22E-02
1529.7108,417.14,-2.20E-02
1529.8176,417.24,-2.20E-02
1529.9244,417.34,-2.20E-02
1530.0312,417.44,-2.20E-02
1530.1374,417.54,-2.20E-02
1530.2442,417.64,-2.20E-02
1530.351,417.74,-2.20E-02
1530.4578,417.84,-2.20E-02
1530.5646,417.94,-2.20E-02
1530.6714,418.04,-2.20E-02
1530.7776,418.14,-2.20E-02
1530.8844,418.24,-2.20E-02
1530.9918,418.34,-2.20E-02
1531.098,418.44,-2.20E-02
1531.2042,418.54,-2.21E-02
1531.311,418.64,-2.20E-02
1531.4172,418.74,-2.18E-02
1531.5234,418.84,-2.22E-02
1531.6296,418.94,-2.33E-02
1531.7358,419.04,-2.42E-02
1531.842,419.14,-2.41E-02
1531.9482,419.24,-2.39E-02
1532.0538,419.34,-2.40E-02
1532.1588,419.44,-2.40E-02
1532.2644,419.54,-2.40E-02
1532.37,419.64,-2.40E-02
1532.4762,419.74,-2.40E-02
1532.5824,419.84,-2.40E-02
1532.688,419.94,-2.40E-02
1532.7942,420.04,-2.40E-02
1532.8998,420.14,-2.40E-02
1533.0054,420.24,-2.40E-02
1533.111,420.34,-2.40E-02
1533.2166,420.44,-2.40E-02
1533.3228,420.54,-2.40E-02
1533.4284,420.64,-2.40E-02
1533.5346,420.74,-2.40E-02
1533.6396,420.84,-2.40E-02
1533.7452,420.94,-2.40E-02
1533.8514,421.04,-2.40E-02
1533.957,421.14,-2.40E-02
1534.0626,421.24,-2.40E-02
1534.1682,421.34,-2.40E-02
1534.2732,421.44,-2.40E-02
1534.3782,421.54,-2.40E-02
1534.4832,421.64,-2.40E-02
1534.5888,421.74,-2.38E-02
1534.6944,421.84,-2.40E-02
1534.8,421.94,-2.51E-02
1534.9056,422.04,-2.60E-02
1535.0106,422.14,-2.60E-02
1535.1162,422.24,-2.61E-02
1535.2218,422.34,-2.72E-02
1535.3268,422.44,-2.81E-02
1535.4324,422.54,-2.82E-02
1535.5374,422.64,-2.80E-02
1535.6424,422.74,-2.80E-02
1535.7474,422.84,-2.80E-02
1535.8524,422.94,-2.80E-02
1535.9574,423.04,-2.80E-02
1536.0624,423.14,-2.80E-02
1536.1668,423.24,-2.79E-02
1536.2712,423.34,-2.79E-02
1536.375,423.44,-2.84E-02
1536.4794,423.54,-2.89E-02
1536.5838,423.64,-2.91E-02
1536.6882,423.74,-2.90E-02
1536.7932,423.84,-2.90E-02
1536.8982,423.94,-2.90E-02
1537.0032,424.04,-2.90E-02
1537.1076,424.14,-2.90E-02
1537.212,424.24,-2.90E-02
1537.3164,424.34,-2.90E-02
1537.4208,424.44,-2.89E-02
1537.5252,424.54,-2.91E-02
1537.6296,424.64,-2.97E-02
1537.734,424.74,-3.01E-02
1537.8378,424.84,-3.01E-02
1537.9428,424.94,-3.00E-02
1538.0472,425.04,-3.00E-02
1538.151,425.14,-3.00E-02
1538.2548,425.24,-3.00E-02
1538.3586,425.34,-3.00E-02
1538.463,425.44,-3.00E-02
1538.5674,425.54,-2.99E-02
1538.6706,425.64,-2.99E-02
1538.775,425.74,-3.04E-02
1538.8794,425.84,-3.09E-02
1538.9838,425.94,-3.11E-02
1539.0876,426.04,-3.10E-02
1539.1914,426.14,-3.10E-02
1539.2958,426.24,-3.10E-02
1539.399,426.34,-3.10E-02
1539.5022,426.44,-3.10E-02
1539.606,426.54,-3.10E-02
1539.7098,426.64,-3.10E-02
1539.8136,426.74,-3.10E-02
1539.9168,426.84,-3.10E-02
1540.0206,426.94,-3.09E-02
1540.1244,427.04,-3.11E-02
1540.2282,427.14,-3.17E-02
1540.3314,427.24,-3.21E-02
1540.4346,427.34,-3.21E-02
1540.5378,427.44,-3.20E-02
1540.641,427.54,-3.20E-02
1540.7448,427.64,-3.20E-02
1540.8486,427.74,-3.20E-02
1540.9524,427.84,-3.19E-02
1541.055,427.94,-3.19E-02
1541.1582,428.04,-3.23E-02
1541.2614,428.14,-3.28E-02
1541.3652,428.24,-3.31E-02
1541.4678,428.34,-3.30E-02
1541.571,428.44,-3.30E-02
1541.6742,428.54,-3.30E-02
1541.7768,428.64,-3.31E-02
1541.8788,428.74,-3.30E-02
1541.982,428.84,-3.28E-02
1542.0852,428.94,-3.29E-02
1542.1878,429.04,-3.39E-02
1542.2904,429.14,-3.49E-02
1542.393,429.24,-3.50E-02
1542.4956,429.34,-3.50E-02
1542.5988,429.44,-3.59E-02
1542.7014,429.54,-3.70E-02
1542.804,429.64,-3.72E-02
1542.9066,429.74,-3.70E-02
1543.0092,429.84,-3.69E-02
1543.1124,429.94,-3.70E-02
1543.215,430.04,-3.70E-02
1543.317,430.14,-3.70E-02
1543.419,430.24,-3.70E-02
1543.5216,430.34,-3.70E-02
1543.6248,430.44,-3.70E-02
1543.7274,430.54,-3.70E-02
1543.83,430.64,-3.71E-02
1543.9326,430.74,-3.69E-02
1544.0346,430.84,-3.68E-02
1544.1372,430.94,-3.73E-02
1544.2398,431.04,-3.85E-02
1544.3418,431.14,-3.92E-02
1544.4444,431.24,-3.91E-02
1544.5476,431.34,-3.90E-02
1544.6502,431.44,-3.90E-02
1544.7528,431.54,-3.90E-02
1544.8548,431.64,-3.89E-02
1544.9568,431.74,-3.92E-02
1545.0588,431.84,-3.98E-02
1545.1608,431.94,-4.01E-02
1545.2628,432.04,-4.00E-02
1545.3648,432.14,-4.00E-02
1545.4674,432.24,-4.00E-02
1545.5694,432.34,-3.99E-02
1545.6708,432.44,-3.99E-02
1545.7722,432.54,-4.03E-02
1545.8742,432.64,-4.09E-02
1545.9762,432.74,-4.11E-02
1546.0776,432.84,-4.10E-02
1546.179,432.94,-4.10E-02
1546.2804,433.04,-4.10E-02
1546.3818,433.14,-4.09E-02
1546.4838,433.24,-4.10E-02
1546.5852,433.34,-4.14E-02
1546.6872,433.44,-4.20E-02
1546.7886,433.54,-4.21E-02
1546.89,433.64,-4.20E-02
1546.992,433.74,-4.20E-02
1547.0934,433.84,-4.20E-02
1547.1948,433.94,-4.19E-02
1547.2956,434.04,-4.20E-02
1547.397,434.14,-4.25E-02
1547.4984,434.24,-4.30E-02
1547.6004,434.34,-4.31E-02
1547.7018,434.44,-4.30E-02
1547.8038,434.54,-4.29E-02
1547.9052,434.64,-4.30E-02
1548.0066,434.74,-4.35E-02
1548.1074,434.84,-4.40E-02
1548.2094,434.94,-4.41E-02
1548.3108,435.04,-4.40E-02
1548.4122,435.14,-4.39E-02
1548.513,435.24,-4.40E-02
1548.6138,435.34,-4.46E-02
1548.7152,435.44,-4.50E-02
1548.8166,435.54,-4.51E-02
1548.9174,435.64,-4.50E-02
1549.0182,435.74,-4.50E-02
1549.1184,435.84,-4.50E-02
1549.2198,435.94,-4.48E-02
1549.3206,436.04,-4.52E-02
1549.4214,436.14,-4.63E-02
1549.5228,436.24,-4.71E-02
1549.6236,436.34,-4.72E-02
1549.7238,436.44,-4.70E-02
1549.8246,436.54,-4.70E-02
1549.9254,436.64,-4.70E-02
1550.0262,436.74,-4.69E-02
1550.127,436.84,-4.71E-02
1550.2284,436.94,-4.77E-02
1550.3286,437.04,-4.81E-02
1550.4294,437.14,-4.81E-02
1550.5296,437.24,-4.80E-02
1550.6304,437.34,-4.79E-02
1550.7312,437.44,-4.81E-02
1550.8314,437.54,-4.87E-02
1550.9322,437.64,-4.91E-02
1551.033,437.74,-4.91E-02
1551.1338,437.84,-4.89E-02
1551.2346,437.94,-4.88E-02
1551.3354,438.04,-4.93E-02
1551.4356,438.14,-5.04E-02
1551.5364,438.24,-5.12E-02
1551.6366,438.34,-5.11E-02
1551.7374,438.44,-5.10E-02
1551.8376,438.54,-5.10E-02
1551.9384,438.64,-5.10E-02
1552.0386,438.74,-5.10E-02
1552.1394,438.84,-5.10E-02
1552.239,438.94,-5.11E-02
1552.3392,439.04,-5.09E-02
1552.44,439.14,-5.08E-02
1552.5408,439.24,-5.13E-02
1552.6416,439.34,-5.25E-02
1552.7412,439.44,-5.31E-02
1552.8414,439.54,-5.30E-02
1552.9416,439.64,-5.31E-02
1553.0418,439.74,-5.37E-02
1553.142,439.84,-5.41E-02
1553.2416,439.94,-5.41E-02
1553.3418,440.04,-5.39E-02
1553.442,440.14,-5.38E-02
1553.5416,440.24,-5.43E-02
1553.6412,440.34,-5.55E-02
1553.7408,440.44,-5.62E-02
1553.841,440.54,-5.62E-02
1553.9406,440.64,-5.59E-02
1554.0408,440.74,-5.59E-02
1554.1404,440.84,-5.62E-02
1554.24,440.94,-5.67E-02
1554.3396,441.04,-5.71E-02
1554.4392,441.14,-5.71E-02
1554.5388,441.24,-5.69E-02
1554.6384,441.34,-5.69E-02
1554.738,441.44,-5.72E-02
1554.8382,441.54,-5.78E-02
1554.9378,441.64,-5.80E-02
1555.0374,441.74,-5.79E-02
1555.137,441.84,-5.83E-02
1555.236,441.94,-5.94E-02
1555.3356,442.04,-6.02E-02
1555.4352,442.14,-6.01E-02
1555.5348,442.24,-6.00E-02
1555.6338,442.34,-6.00E-02
1555.7334,442.44,-5.99E-02
1555.833,442.54,-5.98E-02
1555.932,442.64,-6.03E-02
1556.031,442.74,-6.14E-02
1556.13,442.84,-6.21E-02
1556.229,442.94,-6.21E-02
1556.328,443.04,-6.20E-02
1556.4276,443.14,-6.20E-02
1556.5266,443.24,-6.20E-02
1556.625,443.34,-6.18E-02
1556.724,443.44,-6.22E-02
1556.8236,443.54,-6.33E-02
1556.9232,443.64,-6.41E-02
1557.0222,443.74,-6.40E-02
1557.1212,443.84,-6.41E-02
1557.2202,443.94,-6.52E-02
1557.3192,444.04,-6.61E-02
1557.4182,444.14,-6.62E-02
1557.5172,444.24,-6.60E-02
1557.6162,444.34,-6.60E-02
1557.7146,444.44,-6.60E-02
1557.8136,444.54,-6.58E-02
1557.912,444.64,-6.61E-02
1558.0104,444.74,-6.72E-02
1558.1088,444.84,-6.80E-02
1558.2072,444.94,-6.80E-02
1558.3062,445.04,-6.80E-02
1558.4052,445.14,-6.90E-02
1558.5036,445.24,-7.00E-02
1558.6026,445.34,-7.01E-02
1558.701,445.44,-7.00E-02
1558.8,445.54,-7.05E-02
1558.899,445.64,-7.10E-02
1558.9974,445.74,-7.09E-02
1559.0958,445.84,-7.10E-02
1559.1948,445.94,-7.19E-02
1559.2932,446.04,-7.30E-02
1559.3916,446.14,-7.31E-02
1559.49,446.24,-7.30E-02
1559.5884,446.34,-7.34E-02
1559.6868,446.44,-7.40E-02
1559.7852,446.54,-7.39E-02
1559.8836,446.64,-7.39E-02
1559.982,446.74,-7.48E-02
1560.0798,446.84,-7.59E-02
1560.1776,446.94,-7.61E-02
1560.2754,447.04,-7.60E-02
1560.3732,447.14,-7.63E-02
1560.4716,447.24,-7.69E-02
1560.57,447.34,-7.70E-02
1560.669,447.44,-7.69E-02
1560.7674,447.54,-7.76E-02
1560.8658,447.64,-7.87E-02
1560.963,447.74,-7.91E-02
1561.0608,447.84,-7.90E-02
1561.1586,447.94,-7.92E-02
1561.257,448.04,-7.98E-02
1561.3548,448.14,-8.00E-02
1561.4532,448.24,-7.99E-02
1561.5516,448.34,-8.04E-02
1561.65,448.44,-8.16E-02
1561.7478,448.54,-8.21E-02
1561.845,448.64,-8.19E-02
1561.9428,448.74,-8.23E-02
1562.04,448.84,-8.35E-02
1562.1372,448.94,-8.41E-02
1562.2344,449.04,-8.39E-02
1562.3322,449.14,-8.42E-02
1562.43,449.24,-8.53E-02
1562.5278,449.34,-8.61E-02
1562.6256,449.44,-8.60E-02
1562.7234,449.54,-8.61E-02
1562.8218,449.64,-8.66E-02
1562.9202,449.74,-8.70E-02
1563.0186,449.84,-8.69E-02
1563.1158,449.94,-8.71E-02
1563.2136,450.04,-8.82E-02
1563.3102,450.14,-8.90E-02
1563.408,450.24,-8.90E-02
1563.5052,450.34,-8.90E-02
1563.603,450.44,-9.00E-02
1563.7008,450.54,-9.10E-02
1563.798,450.64,-9.12E-02
1563.8952,450.74,-9.10E-02
1563.9924,450.84,-9.08E-02
1564.089,450.94,-9.10E-02
1564.1856,451.04,-9.15E-02
1564.2828,451.14,-9.20E-02
1564.38,451.24,-9.20E-02
1564.4778,451.34,-9.19E-02
1564.575,451.44,-9.25E-02
1564.6722,451.54,-9.36E-02
1564.7694,451.64,-9.49E-02
1564.8666,451.74,-9.58E-02
1564.9638,451.84,-9.62E-02
1565.061,451.94,-9.61E-02
1565.1582,452.04,-9.58E-02
1565.2548,452.14,-9.58E-02
1565.352,452.24,-9.65E-02
1565.4486,452.34,-9.76E-02
1565.5452,452.44,-9.81E-02
1565.6418,452.54,-9.79E-02
1565.7384,452.64,-9.83E-02
1565.835,452.74,-9.94E-02
1565.9322,452.84,-0.10012
1566.0288,452.94,-0.10004
1566.1254,453.04,-0.10007
1566.222,453.14,-0.10064
1566.3186,453.24,-0.10102
1566.4152,453.34,-0.10087
1566.5124,453.44,-0.10108
1566.609,453.54,-0.10214
1566.7056,453.64,-0.10302
1566.8022,453.74,-0.10299
1566.8994,453.84,-0.103
1566.996,453.94,-0.10395
1567.0926,454.04,-0.10496
1567.1892,454.14,-0.10503
1567.2852,454.24,-0.10494
1567.3818,454.34,-0.10575
1567.4778,454.44,-0.10684
1567.5744,454.54,-0.10714
1567.6704,454.64,-0.10698
1567.7664,454.74,-0.10728
1567.8624,454.84,-0.10787
1567.9578,454.94,-0.10798
1568.0538,455.04,-0.10786
1568.1498,455.14,-0.10843
1568.2458,455.24,-0.10957
1568.3424,455.34,-0.11009
1568.4384,455.44,-0.10992
1568.5338,455.54,-0.11025
1568.6298,455.64,-0.11136
1568.7252,455.74,-0.11208
1568.8212,455.84,-0.11196
1568.9166,455.94,-0.1121
1569.0126,456.04,-0.11313
1569.1086,456.14,-0.11404
1569.2046,456.24,-0.11409
1569.3006,456.34,-0.114
1569.396,456.44,-0.11447
1569.4914,456.54,-0.11498
1569.5868,456.64,-0.11493
1569.6822,456.74,-0.11492
1569.7782,456.84,-0.11576
1569.8742,456.94,-0.11683
1569.9696,457.04,-0.11706
1570.0656,457.14,-0.1169
1570.161,457.24,-0.11753
1570.257,457.34,-0.11866
1570.3524,457.44,-0.1191
1570.4484,457.54,-0.11892
1570.5438,457.64,-0.11933
1570.6392,457.74,-0.12044
1570.7346,457.84,-0.12113
1570.83,457.94,-0.12104
1570.9254,458.04,-0.12107
1571.0208,458.14,-0.12163
1571.1162,458.24,-0.12202
1571.2116,458.34,-0.12188
1571.307,458.44,-0.12204
1571.4018,458.54,-0.12305
1571.4972,458.64,-0.12399
1571.5926,458.74,-0.12402
1571.6874,458.84,-0.12395
1571.7822,458.94,-0.12476
1571.877,459.04,-0.12584
1571.9724,459.14,-0.12614
1572.0672,459.24,-0.12598
1572.1626,459.34,-0.12626
1572.258,459.44,-0.12685
1572.3534,459.54,-0.12699
1572.4482,459.64,-0.12685
1572.543,459.74,-0.12736
1572.6384,459.84,-0.12848
1572.7338,459.94,-0.12909
1572.8286,460.04,-0.12893
1572.9234,460.14,-0.12915
1573.0182,460.24,-0.13023
1573.1136,460.34,-0.13106
1573.209,460.44,-0.13099
1573.3038,460.54,-0.13102
1573.3986,460.64,-0.13196
1573.4934,460.74,-0.13296
1573.5888,460.84,-0.13312
1573.6836,460.94,-0.13298
1573.7784,461.04,-0.13336
1573.8738,461.14,-0.13392
1573.9686,461.24,-0.13396
1574.0634,461.34,-0.13387
1574.1576,461.44,-0.13452
1574.2524,461.54,-0.13563
1574.3472,461.64,-0.13609
1574.442,461.74,-0.13591
1574.5368,461.84,-0.13627
1574.6316,461.94,-0.13738
1574.7258,462.04,-0.13809
1574.8206,462.14,-0.13796
1574.9148,462.24,-0.13809
1575.009,462.34,-0.13909
1575.1038,462.44,-0.14002
1575.198,462.54,-0.14008
1575.2922,462.64,-0.13998
1575.3864,462.74,-0.1405
1575.48,462.84,-0.141
1575.5742,462.94,-0.1406
1575.6684,463.04,-0.14
1575.7626,463.14,-0.14047
1575.8568,463.24,-0.14163
1575.951,463.34,-0.14211
1576.0452,463.44,-0.14192
1576.1394,463.54,-0.14229
1576.2336,463.64,-0.1434
1576.3272,463.74,-0.14409
1576.4214,463.84,-0.14396
1576.5156,463.94,-0.14409
1576.6098,464.04,-0.14509
1576.7034,464.14,-0.14602
1576.7982,464.24,-0.1461
1576.8924,464.34,-0.14599
1576.986,464.44,-0.14641
1577.0796,464.54,-0.14694
1577.1732,464.64,-0.14696
1577.2668,464.74,-0.14687
1577.3604,464.84,-0.14755
1577.454,464.94,-0.14865
1577.5476,465.04,-0.14909
1577.6418,465.14,-0.14892
1577.736,465.24,-0.14926
1577.8296,465.34,-0.15034
1577.9232,465.44,-0.1511
1578.0168,465.54,-0.15107
1578.111,465.64,-0.15103
1578.2046,465.74,-0.15153
1578.2982,465.84,-0.152
1578.3918,465.94,-0.15192
1578.4854,466.04,-0.15193
1578.579,466.14,-0.15275
1578.6726,466.24,-0.15381
1578.7668,466.34,-0.15412
1578.8604,466.44,-0.15397
1578.9534,466.54,-0.15427
1579.0464,466.64,-0.15489
1579.14,466.74,-0.15484
1579.2336,466.84,-0.15416
1579.3266,466.94,-0.15413
1579.4196,467.04,-0.15518
1579.5132,467.14,-0.15606
1579.6062,467.24,-0.15601
1579.6998,467.34,-0.156
1579.7934,467.44,-0.15688
1579.887,467.54,-0.15791
1579.98,467.64,-0.15814
1580.073,467.74,-0.15798
1580.166,467.84,-0.15828
1580.2596,467.94,-0.15886
1580.3526,468.04,-0.15899
1580.4468,468.14,-0.15885
1580.5404,468.24,-0.15933
1580.634,468.34,-0.16043
1580.7276,468.44,-0.16108
1580.8206,468.54,-0.16095
1580.9142,468.64,-0.16108
1581.0072,468.74,-0.16206
1581.1002,468.84,-0.163
1581.1932,468.94,-0.16311
1581.2862,469.04,-0.16298
1581.3792,469.14,-0.16336
1581.4722,469.24,-0.16391
1581.5652,469.34,-0.16397
1581.6582,469.44,-0.16387
1581.7518,469.54,-0.16444
1581.8448,469.64,-0.16553
1581.9384,469.74,-0.16613
1582.0314,469.84,-0.16603
1582.1244,469.94,-0.16607
1582.218,470.04,-0.16662
1582.3116,470.14,-0.16701
1582.4046,470.24,-0.16687
1582.4976,470.34,-0.16698
1582.5906,470.44,-0.16798
1582.6842,470.54,-0.16894
1582.7766,470.64,-0.16877
1582.869,470.74,-0.16811
1582.9614,470.84,-0.16815
1583.0538,470.94,-0.16878
1583.1456,471.04,-0.16903
1583.238,471.14,-0.16888
1583.3304,471.24,-0.16922
1583.4228,471.34,-0.17027
1583.5158,471.44,-0.17107
1583.6082,471.54,-0.17108
1583.7006,471.64,-0.171
1583.7936,471.74,-0.17146
1583.8866,471.84,-0.17197
1583.979,471.94,-0.17194
1584.0714,472.04,-0.17188
1584.1638,472.14,-0.17259
1584.2568,472.24,-0.17367
1584.3492,472.34,-0.17409
1584.4422,472.44,-0.17392
1584.534,472.54,-0.17424
1584.6264,472.64,-0.17529
1584.7182,472.74,-0.17609
1584.8106,472.84,-0.17608
1584.903,472.94,-0.17601
1584.9954,473.04,-0.17645
1585.0878,473.14,-0.17696
1585.1802,473.24,-0.177
1585.2726,473.34,-0.17694
1585.3656,473.44,-0.17738
1585.458,473.54,-0.17795
1585.5504,473.64,-0.17777
1585.6422,473.74,-0.1771
1585.7346,473.84,-0.1772
1585.8276,473.94,-0.17828
1585.92,474.04,-0.17909
1586.0118,474.14,-0.179
1586.1036,474.24,-0.17902
1586.196,474.34,-0.17991
1586.2884,474.44,-0.18092
1586.3802,474.54,-0.18115
1586.472,474.64,-0.181
1586.5632,474.74,-0.18122
1586.6556,474.84,-0.18177
1586.7474,474.94,-0.18214
1586.8392,475.04,-0.18213
1586.931,475.14,-0.18191
1587.0228,475.24,-0.18175
1587.1152,475.34,-0.18211
1587.2076,475.44,-0.18311
1587.2994,475.54,-0.184
1587.3912,475.64,-0.18416
1587.483,475.74,-0.18401
1587.5754,475.84,-0.18414
1587.6678,475.94,-0.18471
1587.7596,476.04,-0.18565
1587.8508,476.14,-0.18663
1587.9426,476.24,-0.18717
1588.0344,476.34,-0.18715
1588.1262,476.44,-0.18694
1588.2186,476.54,-0.18684
1588.311,476.64,-0.18705
1588.4022,476.74,-0.18759
1588.494,476.84,-0.18799
1588.5864,476.94,-0.18788
1588.6788,477.04,-0.18789
1588.7706,477.14,-0.18875
1588.8624,477.24,-0.18981
1588.9542,477.34,-0.18985
1589.046,477.44,-0.18915
1589.1384,477.54,-0.18919
1589.2302,477.64,-0.19026
1589.3214,477.74,-0.19111
1589.4132,477.84,-0.1911
1589.505,477.94,-0.19101
1589.5968,478.04,-0.19147
1589.6886,478.14,-0.19197
1589.7804,478.24,-0.19195
1589.8716,478.34,-0.19189
1589.9634,478.44,-0.19256
1590.0552,478.54,-0.19363
1590.1464,478.64,-0.19414
1590.2382,478.74,-0.19402
1590.33,478.84,-0.19409
1590.4218,478.94,-0.19464
1590.5136,479.04,-0.19502
1590.6054,479.14,-0.19489
1590.6966,479.24,-0.19498
1590.7878,479.34,-0.19587
1590.879,479.44,-0.19687
1590.9702,479.54,-0.19707
1591.0614,479.64,-0.19691
1591.152,479.74,-0.19741
1591.2432,479.84,-0.19849
1591.3344,479.94,-0.19914
1591.4262,480.04,-0.19907
1591.5174,480.14,-0.19903
1591.6086,480.24,-0.19947
1591.6998,480.34,-0.2
1591.791,480.44,-0.2002
1591.8822,480.54,-0.20006
1591.9734,480.64,-0.19967
1592.064,480.74,-0.19918
1592.1552,480.84,-0.19878
1592.2464,480.94,-0.19873
1592.3376,481.04,-0.19935
1592.4288,481.14,-0.20042
1592.52,481.24,-0.20106
1592.6106,481.34,-0.20096
1592.7012,481.44,-0.20101
1592.7918,481.54,-0.2019
1592.883,481.64,-0.20289
1592.9736,481.74,-0.20307
1593.0642,481.84,-0.20291
1593.1548,481.94,-0.20345
1593.246,482.04,-0.20452
1593.3372,482.14,-0.20513
1593.4278,482.24,-0.20504
1593.519,482.34,-0.20505
1593.6108,482.44,-0.20557
1593.702,482.54,-0.206
1593.7926,482.64,-0.20592
1593.8832,482.74,-0.20592
1593.9738,482.84,-0.20669
1594.0644,482.94,-0.20773
1594.1556,483.04,-0.20814
1594.2468,483.14,-0.208
1594.338,483.24,-0.20813
1594.4292,483.34,-0.20869
1594.5198,483.44,-0.20902
1594.611,483.54,-0.20889
1594.7022,483.64,-0.20901
1594.7928,483.74,-0.20991
1594.8834,483.84,-0.21089
1594.974,483.94,-0.21113
1595.0652,484.04,-0.21098
1595.1558,484.14,-0.21122
1595.2464,484.24,-0.21179
1595.3376,484.34,-0.21201
1595.4282,484.44,-0.21186
1595.5188,484.54,-0.21213
1595.6094,484.64,-0.21314
1595.7006,484.74,-0.214
1595.7912,484.84,-0.21402
1595.8824,484.94,-0.21394
1595.9724,485.04,-0.21464
1596.063,485.14,-0.2157
1596.153,485.24,-0.21615
1596.2436,485.34,-0.21602
1596.3342,485.44,-0.2161
1596.4248,485.54,-0.21663
1596.5154,485.64,-0.21703
1596.606,485.74,-0.21701
1596.6966,485.84,-0.21699
1596.7866,485.94,-0.21739
1596.8766,486.04,-0.21791
1596.9672,486.14,-0.2181
1597.0572,486.24,-0.21804
1597.1472,486.34,-0.218
1597.2372,486.44,-0.21804
1597.3272,486.54,-0.21795
1597.4172,486.64,-0.21778
1597.5078,486.74,-0.21805
1597.5984,486.84,-0.21901
1597.689,486.94,-0.21993
1597.7796,487.04,-0.22012
1597.8702,487.14,-0.21998
1597.9602,487.24,-0.22025
1598.0508,487.34,-0.22081
1598.1408,487.44,-0.22101
1598.2308,487.54,-0.22086
1598.3214,487.64,-0.22115
1598.4108,487.74,-0.22214
1598.5014,487.84,-0.22301
1598.592,487.94,-0.22311
1598.6826,488.04,-0.22298
1598.7732,488.14,-0.22333
1598.8638,488.24,-0.22388
1598.9544,488.34,-0.224
1599.0444,488.44,-0.22386
1599.1344,488.54,-0.22426
1599.2244,488.64,-0.22529
1599.3144,488.74,-0.22607
1599.4044,488.84,-0.22609
1599.495,488.94,-0.22599
1599.585,489.04,-0.22638
1599.6756,489.14,-0.22691
1599.7662,489.24,-0.22704
1599.8562,489.34,-0.22695
1599.9462,489.44,-0.2272
1600.0362,489.54,-0.22775
1600.1262,489.64,-0.22801
1600.2162,489.74,-0.22787
1600.3062,489.84,-0.22804
1600.3956,489.94,-0.22897
1600.485,490.04,-0.22991
1600.575,490.14,-0.23006
1600.6644,490.24,-0.22991
1600.7544,490.34,-0.23044
1600.8438,490.44,-0.2315
1600.9338,490.54,-0.23213
1601.0238,490.64,-0.23206
1601.1138,490.74,-0.23203
1601.2032,490.84,-0.23249
1601.2926,490.94,-0.23298
1601.382,491.04,-0.23304
1601.4714,491.14,-0.23296
1601.5608,491.24,-0.23324
1601.6502,491.34,-0.23377
1601.7402,491.44,-0.23409
1601.8302,491.54,-0.23407
1601.9196,491.64,-0.23399
1602.0096,491.74,-0.234
1602.099,491.84,-0.234
1602.1884,491.94,-0.2339
1602.2778,492.04,-0.23394
1602.3672,492.14,-0.23435
1602.4566,492.24,-0.23487
1602.5466,492.34,-0.23499
1602.636,492.44,-0.23486
1602.726,492.54,-0.23518
1602.8154,492.64,-0.23616
1602.9048,492.74,-0.23703
1602.9942,492.84,-0.2372
1603.0842,492.94,-0.23702
1603.1736,493.04,-0.23698
1603.263,493.14,-0.23702
1603.3524,493.24,-0.2369
1603.4418,493.34,-0.2368
1603.5312,493.44,-0.23725
1603.6206,493.54,-0.23827
1603.7094,493.64,-0.23905
1603.7988,493.74,-0.23909
1603.8888,493.84,-0.23899
1603.9782,493.94,-0.23934
1604.0676,494.04,-0.23987
1604.1564,494.14,-0.24005
1604.2458,494.24,-0.23996
1604.3352,494.34,-0.24013
1604.424,494.44,-0.24065
1604.5134,494.54,-0.24103
1604.6028,494.64,-0.24099
1604.6922,494.74,-0.24098
1604.781,494.84,-0.24141
1604.8698,494.94,-0.24191
1604.9592,495.04,-0.24198
1605.0486,495.14,-0.24185
1605.1374,495.24,-0.2423
1605.2268,495.34,-0.24333
1605.3156,495.44,-0.24407
1605.405,495.54,-0.24406
1605.4938,495.64,-0.24399
1605.5826,495.74,-0.24445
1605.672,495.84,-0.24496
1605.7614,495.94,-0.24477
1605.8502,496.04,-0.24417
1605.939,496.14,-0.24406
1606.0272,496.24,-0.24459
1606.116,496.34,-0.24504
1606.2048,496.44,-0.24501
1606.2936,496.54,-0.24499
1606.3824,496.64,-0.24541
1606.4712,496.74,-0.24592
1606.56,496.84,-0.24598
1606.6482,496.94,-0.24586
1606.737,497.04,-0.24629
1606.8258,497.14,-0.24731
1606.9152,497.24,-0.24807
1607.0034,497.34,-0.24809
1607.0922,497.44,-0.24799
1607.181,497.54,-0.24836
1607.2704,497.64,-0.24889
1607.3592,497.74,-0.24905
1607.4486,497.84,-0.24896
1607.5374,497.94,-0.24914
1607.6262,498.04,-0.24967
1607.7144,498.14,-0.25002
1607.8032,498.24,-0.24996
1607.892,498.34,-0.24997
1607.9814,498.44,-0.25049
1608.0702,498.54,-0.25098
1608.159,498.64,-0.25072
1608.2478,498.74,-0.25009
1608.3366,498.84,-0.25019
1608.426,498.94,-0.25121
1608.5154,499.04,-0.2521
1608.6042,499.14,-0.25222
1608.693,499.24,-0.25201
1608.7818,499.34,-0.25198
1608.8706,499.44,-0.25202
1608.9588,499.54,-0.25189
1609.0482,499.64,-0.25181
1609.137,499.74,-0.25229
1609.2252,499.84,-0.25328
1609.3134,499.94,-0.25408
1609.4022,500.04,-0.25423
1609.4904,500.14,-0.25403
1609.5792,500.24,-0.25385
1609.6674,500.34,-0.2539
1609.7562,500.44,-0.25428
1609.8444,500.54,-0.25479
1609.9326,500.64,-0.25504
1610.0214,500.74,-0.25497
1610.1102,500.84,-0.25503
1610.1984,500.94,-0.25549
1610.2872,501.04,-0.25596
1610.3754,501.14,-0.25604
1610.4636,501.24,-0.25596
1610.5518,501.34,-0.25618
1610.64,501.44,-0.25669
1610.7282,501.54,-0.2571
1610.8164,501.64,-0.25719
1610.9046,501.74,-0.25698
1610.9928,501.84,-0.25656
1611.081,501.94,-0.25609
1611.1692,502.04,-0.25575
1611.2574,502.14,-0.25578
1611.3456,502.24,-0.25641
1611.4344,502.34,-0.25741
1611.5226,502.44,-0.25812
1611.6108,502.54,-0.25821
1611.699,502.64,-0.258
1611.7878,502.74,-0.25786
1611.8766,502.84,-0.25793
1611.9648,502.94,-0.25831
1612.0536,503.04,-0.2588
1612.1418,503.14,-0.2591
1612.2306,503.24,-0.2591
1612.3194,503.34,-0.25897
1612.407,503.44,-0.25887
1612.4952,503.54,-0.25898
1612.5828,503.64,-0.2594
1612.671,503.74,-0.25988
1612.7592,503.84,-0.26012
1612.8474,503.94,-0.26008
1612.935,504.04,-0.25994
1613.0232,504.14,-0.25987
1613.1108,504.24,-0.26004
1613.199,504.34,-0.2605
1613.2866,504.44,-0.26095
1613.3748,504.54,-0.26111
1613.463,504.64,-0.26104
1613.5506,504.74,-0.26097
1613.6388,504.84,-0.26098
1613.7264,504.94,-0.26101
1613.8146,505.04,-0.26101
1613.9028,505.14,-0.261
1613.9904,505.24,-0.26098
1614.0786,505.34,-0.26099
1614.1662,505.44,-0.26104
1614.2544,505.54,-0.26106
1614.342,505.64,-0.2609
1614.4296,505.74,-0.26076
1614.5178,505.84,-0.26114
1614.6054,505.94,-0.26216
1614.6936,506.04,-0.26297
1614.7806,506.14,-0.26285
1614.8682,506.24,-0.26221
1614.9558,506.34,-0.26178
1615.0434,506.44,-0.26181
1615.1316,506.54,-0.26215
1615.2192,506.64,-0.26264
1615.3068,506.74,-0.26302
1615.3944,506.84,-0.26312
1615.482,506.94,-0.26303
1615.5696,507.04,-0.2629
1615.6578,507.14,-0.2629
1615.7454,507.24,-0.2632
1615.833,507.34,-0.2637
1615.9206,507.44,-0.26405
1616.0088,507.54,-0.26407
1616.0964,507.64,-0.264
1616.184,507.74,-0.26403
1616.2722,507.84,-0.26404
1616.3592,507.94,-0.26384
1616.4462,508.04,-0.26375
1616.5338,508.14,-0.26434
1616.6214,508.24,-0.26547
1616.7096,508.34,-0.26599
1616.7972,508.44,-0.26524
1616.8842,508.54,-0.26414
1616.9718,508.64,-0.26373
1617.0594,508.74,-0.26389
1617.1464,508.84,-0.26407
1617.234,508.94,-0.26405
1617.321,509.04,-0.26399
1617.4086,509.14,-0.26397
1617.4956,509.24,-0.264
1617.5832,509.34,-0.26405
1617.6708,509.44,-0.26404
1617.7578,509.54,-0.26387
1617.8454,509.64,-0.2638
1617.9324,509.74,-0.26426
1618.02,509.84,-0.26524
1618.1076,509.94,-0.26604
1618.1946,510.04,-0.2662
1618.2822,510.14,-0.26603
1618.3692,510.24,-0.26596
1618.4562,510.34,-0.266
1618.5432,510.44,-0.26597
1618.6302,510.54,-0.2659
1618.7178,510.64,-0.26606
1618.8042,510.74,-0.26652
1618.8912,510.84,-0.26697
1618.9782,510.94,-0.2671
1619.0658,511.04,-0.26703
1619.1528,511.14,-0.26699
1619.2398,511.24,-0.26701
1619.3262,511.34,-0.26698
1619.4132,511.44,-0.2669
1619.5008,511.54,-0.267
1619.5878,511.64,-0.26742
1619.6748,511.74,-0.2679
1619.7618,511.84,-0.26811
1619.8482,511.94,-0.26806
1619.9352,512.04,-0.26798
1620.0222,512.14,-0.26797
1620.1092,512.24,-0.268
1620.1968,512.34,-0.26803
1620.2838,512.44,-0.26801
1620.3708,512.54,-0.26793
1620.4572,512.64,-0.26792
1620.5442,512.74,-0.26816
1620.6312,512.84,-0.26863
1620.7182,512.94,-0.26908
1620.8052,513.04,-0.2693
1620.8922,513.14,-0.26905
1620.9792,513.24,-0.26824
1621.0662,513.34,-0.26728
1621.1532,513.44,-0.26675
1621.2396,513.54,-0.26677
1621.3266,513.64,-0.26714
1621.4136,513.74,-0.26763
1621.5,513.84,-0.268
1621.587,513.94,-0.26808
1621.6734,514.04,-0.26801
1621.7604,514.14,-0.26801
1621.8474,514.24,-0.26804
1621.9344,514.34,-0.26794
1622.0214,514.44,-0.2678
1622.1084,514.54,-0.26805
1622.1948,514.64,-0.26891
1622.2818,514.74,-0.26985
1622.3688,514.84,-0.27029
1622.4558,514.94,-0.27019
1622.5428,515.04,-0.26978
1622.6292,515.14,-0.26929
1622.7156,515.24,-0.26896
1622.802,515.34,-0.26891
1622.8878,515.44,-0.26899
1622.9742,515.54,-0.26902
1623.0612,515.64,-0.26901
1623.1476,515.74,-0.26899
1623.2346,515.84,-0.26899
1623.321,515.94,-0.269
1623.4074,516.04,-0.26901
1623.4944,516.14,-0.269
1623.5808,516.24,-0.26899
1623.6672,516.34,-0.26899
1623.7536,516.44,-0.26904
1623.8406,516.54,-0.26906
1623.927,516.64,-0.26894
1624.0134,516.74,-0.26876
1624.0998,516.84,-0.269
1624.1868,516.94,-0.26993
1624.2732,517.04,-0.27086
1624.3602,517.14,-0.27094
1624.4466,517.24,-0.27035
1624.533,517.34,-0.26988
1624.6188,517.44,-0.26987
1624.7052,517.54,-0.27001
1624.7916,517.64,-0.27004
1624.878,517.74,-0.27001
1624.9644,517.84,-0.26999
1625.0508,517.94,-0.26999
1625.1366,518.04,-0.27
1625.223,518.14,-0.27001
1625.3094,518.24,-0.27
1625.3964,518.34,-0.26999
1625.4828,518.44,-0.26999
1625.5692,518.54,-0.27004
1625.6556,518.64,-0.27005
1625.742,518.74,-0.26992
1625.8278,518.84,-0.26979
1625.9142,518.94,-0.2701
1626,519.04,-0.27097
1626.0864,519.14,-0.27189
1626.1722,519.24,-0.27229
1626.258,519.34,-0.27218
1626.3438,519.44,-0.27176
1626.4296,519.54,-0.27128
1626.5154,519.64,-0.27097
1626.6012,519.74,-0.27094
1626.687,519.84,-0.271
1626.7728,519.94,-0.27095
1626.8586,520.04,-0.27092
1626.9444,520.14,-0.27118
1627.0302,520.24,-0.27167
1627.116,520.34,-0.27204
1627.2024,520.44,-0.2721
1627.2882,520.54,-0.27201
1627.374,520.64,-0.27196
1627.4598,520.74,-0.27198
1627.5462,520.84,-0.27202
1627.632,520.94,-0.27204
1627.7178,521.04,-0.27198
1627.8042,521.14,-0.27187
1627.8906,521.24,-0.27196
1627.9764,521.34,-0.27244
1628.0616,521.44,-0.27293
1628.1474,521.54,-0.27289
1628.2338,521.64,-0.27237
1628.3196,521.74,-0.27194
1628.4048,521.84,-0.2719
1628.4906,521.94,-0.272
1628.577,522.04,-0.27195
1628.6634,522.14,-0.27193
1628.7498,522.24,-0.2722
1628.8362,522.34,-0.2727
1628.922,522.44,-0.27306
1629.0084,522.54,-0.27311
1629.0948,522.64,-0.27301
1629.1812,522.74,-0.27294
1629.2682,522.84,-0.27296
1629.3546,522.94,-0.2731
1629.4404,523.04,-0.27316
1629.5268,523.14,-0.27284
1629.6126,523.24,-0.27221
1629.6978,523.34,-0.27199
1629.7836,523.44,-0.27271
1629.87,523.54,-0.27373
1629.9558,523.64,-0.27423
1630.0422,523.74,-0.27414
1630.1286,523.84,-0.27396
1630.2144,523.94,-0.27394
1630.2996,524.04,-0.274
1630.3854,524.14,-0.27402
1630.4712,524.24,-0.27401
1630.557,524.34,-0.27399
1630.6428,524.44,-0.27399
1630.7292,524.54,-0.274
1630.8144,524.64,-0.27402
1630.9002,524.74,-0.274
1630.9866,524.84,-0.27395
1631.0724,524.94,-0.27397
1631.1576,525.04,-0.27412
1631.2434,525.14,-0.27419
1631.3286,525.24,-0.27379
1631.4138,525.34,-0.27289
1631.4996,525.44,-0.272
1631.5848,525.54,-0.27161
1631.67,525.64,-0.27179
1631.7552,525.74,-0.27254
1631.8404,525.84,-0.2735
1631.9256,525.94,-0.27412
1632.0108,526.04,-0.27416
1632.0966,526.14,-0.27401
1632.1818,526.24,-0.27397
1632.2676,526.34,-0.274
1632.3534,526.44,-0.27396
1632.4386,526.54,-0.2739
1632.5232,526.64,-0.27409
1632.6084,526.74,-0.27455
1632.693,526.84,-0.27498
1632.7788,526.94,-0.2751
1632.864,527.04,-0.27503
1632.9492,527.14,-0.275
1633.0344,527.24,-0.27504
1633.119,527.34,-0.27497
1633.2048,527.44,-0.2748
1633.29,527.54,-0.27494
1633.3752,527.64,-0.27571
1633.4604,527.74,-0.27667
1633.5456,527.84,-0.27719
1633.6308,527.94,-0.27715
1633.716,528.04,-0.27698
1633.8018,528.14,-0.27695
1633.8876,528.24,-0.27699
1633.9728,528.34,-0.27702
1634.0574,528.44,-0.27701
1634.1426,528.54,-0.277
1634.2278,528.64,-0.277
1634.3136,528.74,-0.277
1634.3988,528.84,-0.277
1634.484,528.94,-0.277
1634.5692,529.04,-0.27699
1634.6544,529.14,-0.27699
1634.7396,529.24,-0.27702
1634.8254,529.34,-0.27705
1634.9106,529.44,-0.27698
1634.9964,529.54,-0.27682
1635.0816,529.64,-0.27691
1635.1674,529.74,-0.27758
1635.2532,529.84,-0.27855
1635.3384,529.94,-0.27925
1635.423,530.04,-0.27938
1635.5082,530.14,-0.27893
1635.594,530.24,-0.27802
1635.6792,530.34,-0.27714
1635.7644,530.44,-0.2768
1635.849,530.54,-0.2769
1635.9342,530.64,-0.27703
1636.0194,530.74,-0.27703
1636.1046,530.84,-0.277
1636.1898,530.94,-0.27704
1636.275,531.04,-0.27703
1636.3596,531.14,-0.27687
1636.4448,531.24,-0.2768
1636.53,531.34,-0.27724
1636.6152,531.44,-0.27819
1636.7004,531.54,-0.279
1636.7856,531.64,-0.27918
1636.8702,531.74,-0.27903
1636.9554,531.84,-0.27904
1637.0406,531.94,-0.27912
1637.1258,532.04,-0.27886
1637.211,532.14,-0.27824
1637.2962,532.24,-0.27799
1637.3814,532.34,-0.27867
1637.466,532.44,-0.27969
1637.5506,532.54,-0.28022
1637.6352,532.64,-0.28016
1637.7204,532.74,-0.27997
1637.805,532.84,-0.27994
1637.8896,532.94,-0.27999
1637.9748,533.04,-0.28002
1638.06,533.14,-0.28001
1638.1446,533.24,-0.27999
1638.2298,533.34,-0.27998
1638.3144,533.44,-0.28001
1638.399,533.54,-0.28006
1638.4842,533.64,-0.28003
1638.5688,533.74,-0.27983
1638.6534,533.84,-0.27979
1638.738,533.94,-0.28035
1638.8226,534.04,-0.28137
1638.9072,534.14,-0.28202
1638.9918,534.24,-0.28178
1639.0764,534.34,-0.28115
1639.161,534.44,-0.28077
1639.2462,534.54,-0.28081
1639.3308,534.64,-0.28115
1639.4154,534.74,-0.28162
1639.5006,534.84,-0.282
1639.5852,534.94,-0.28212
1639.6698,535.04,-0.28205
1639.7544,535.14,-0.28192
1639.839,535.24,-0.28188
1639.923,535.34,-0.28209
1640.0076,535.44,-0.28256
1640.0928,535.54,-0.28298
1640.1774,535.64,-0.2831
1640.2626,535.74,-0.28303
1640.3466,535.84,-0.28299
1640.4312,535.94,-0.28301
1640.5158,536.04,-0.28299
1640.6004,536.14,-0.28291
1640.685,536.24,-0.28296
1640.7696,536.34,-0.28332
1640.8542,536.44,-0.28381
1640.9388,536.54,-0.28409
1641.024,536.64,-0.28408
1641.1086,536.74,-0.28399
1641.1926,536.84,-0.28398
1641.2766,536.94,-0.284
1641.3612,537.04,-0.284
1641.4464,537.14,-0.28399
1641.531,537.24,-0.28402
1641.6156,537.34,-0.28406
1641.6996,537.44,-0.284
1641.7842,537.54,-0.28382
1641.8694,537.64,-0.28385
1641.954,537.74,-0.28447
1642.038,537.84,-0.28544
1642.1226,537.94,-0.28612
1642.2072,538.04,-0.28619
1642.2918,538.14,-0.28601
1642.3764,538.24,-0.28595
1642.461,538.34,-0.28598
1642.545,538.44,-0.28601
1642.6296,538.54,-0.286
1642.7142,538.64,-0.28601
1642.7982,538.74,-0.28605
1642.8822,538.84,-0.28602
1642.9668,538.94,-0.28586
1643.0508,539.04,-0.28581
1643.1354,539.14,-0.28628
1643.2194,539.24,-0.28722
1643.3034,539.34,-0.28802
1643.388,539.44,-0.28824
1643.472,539.54,-0.28808
1643.556,539.64,-0.28787
1643.6406,539.74,-0.28784
1643.7252,539.84,-0.28813
1643.8098,539.94,-0.28867
1643.8944,540.04,-0.289
1643.9784,540.14,-0.28875
1644.0624,540.24,-0.28821
1644.1464,540.34,-0.28783
1644.2304,540.44,-0.2878
1644.3144,540.54,-0.28806
1644.3984,540.64,-0.28851
1644.4824,540.74,-0.28894
1644.5664,540.84,-0.28914
1644.6504,540.94,-0.2891
1644.7344,541.04,-0.28891
1644.8184,541.14,-0.28876
1644.9024,541.24,-0.28902
1644.987,541.34,-0.28985
1645.0716,541.44,-0.29078
1645.1556,541.54,-0.2912
1645.2396,541.64,-0.29113
1645.3236,541.74,-0.29097
1645.4076,541.84,-0.29094
1645.4922,541.94,-0.29099
1645.5768,542.04,-0.29104
1645.6608,542.14,-0.29103
1645.7448,542.24,-0.29095
1645.8288,542.34,-0.29088
1645.9128,542.44,-0.29105
1645.9968,542.54,-0.29151
1646.0814,542.64,-0.29195
1646.1654,542.74,-0.29203
1646.2488,542.84,-0.29195
1646.3334,542.94,-0.29212
1646.4174,543.04,-0.29261
1646.5014,543.14,-0.293
1646.5854,543.24,-0.29302
1646.6694,543.34,-0.29296
1646.7534,543.44,-0.2932
1646.8374,543.54,-0.2937
1646.9214,543.64,-0.29406
1647.0054,543.74,-0.29411
1647.0894,543.84,-0.29401
1647.1734,543.94,-0.29396
1647.2574,544.04,-0.29398
1647.3414,544.14,-0.29402
1647.4248,544.24,-0.29404
1647.5082,544.34,-0.29399
1647.5922,544.44,-0.29389
1647.6762,544.54,-0.29393
1647.7602,544.64,-0.2943
1647.8442,544.74,-0.29481
1647.9282,544.84,-0.29501
1648.0116,544.94,-0.29488
1648.0956,545.04,-0.29498
1648.179,545.14,-0.29573
1648.263,545.24,-0.29669
1648.347,545.34,-0.29719
1648.431,545.44,-0.29714
1648.515,545.54,-0.29698
1648.599,545.64,-0.297
1648.683,545.74,-0.29702
1648.767,545.84,-0.29687
1648.851,545.94,-0.29681
1648.935,546.04,-0.29729
1649.0184,546.14,-0.29825
1649.1018,546.24,-0.29901
1649.1858,546.34,-0.29911
1649.2698,546.44,-0.29898
1649.3538,546.54,-0.29922
1649.4378,546.64,-0.29974
1649.5212,546.74,-0.30002
1649.6052,546.84,-0.29989
1649.6892,546.94,-0.29995
1649.7726,547.04,-0.30068
1649.856,547.14,-0.30166
1649.94,547.24,-0.30211
1650.024,547.34,-0.30199
1650.108,547.44,-0.30203
1650.1914,547.54,-0.30263
1650.2754,547.64,-0.30305
1650.3588,547.74,-0.30246
1650.4428,547.84,-0.30137
1650.5268,547.94,-0.30106
1650.6108,548.04,-0.30194
1650.6942,548.14,-0.30296
1650.7782,548.24,-0.30319
1650.8616,548.34,-0.30301
1650.945,548.44,-0.30315
1651.0284,548.54,-0.30367
1651.1124,548.64,-0.30402
1651.1958,548.74,-0.30392
1651.2792,548.84,-0.30391
1651.3626,548.94,-0.30455
1651.446,549.04,-0.30554
1651.53,549.14,-0.30611
1651.6134,549.24,-0.30607
1651.6974,549.34,-0.306
1651.7814,549.44,-0.30638
1651.8648,549.54,-0.30688
1651.9482,549.64,-0.307
1652.0322,549.74,-0.30685
1652.1162,549.84,-0.30711
1652.2002,549.94,-0.30802
1652.2836,550.04,-0.3089
1652.3676,550.14,-0.30907
1652.451,550.24,-0.30891
1652.5344,550.34,-0.30924
1652.6178,550.44,-0.31019
1652.7012,550.54,-0.31101
1652.7852,550.64,-0.31113
1652.8686,550.74,-0.31098
1652.952,550.84,-0.3112
1653.0354,550.94,-0.31173
1653.1188,551.04,-0.31202
1653.2022,551.14,-0.3119
1653.2856,551.24,-0.31193
1653.369,551.34,-0.31264
1653.453,551.44,-0.31362
1653.5364,551.54,-0.31411
1653.6198,551.64,-0.314
1653.7038,551.74,-0.31401
1653.7872,551.84,-0.3146
1653.8712,551.94,-0.31505
1653.9546,552.04,-0.31451
1654.038,552.14,-0.31341
1654.1214,552.24,-0.31304
1654.2048,552.34,-0.31389
1654.2888,552.44,-0.31492
1654.3722,552.54,-0.31512
1654.455,552.64,-0.31493
1654.5384,552.74,-0.31528
1654.6218,552.84,-0.31626
1654.7052,552.94,-0.31703
1654.7886,553.04,-0.31704
1654.8726,553.14,-0.31692
1654.956,553.24,-0.31745
1655.0394,553.34,-0.31845
1655.1234,553.44,-0.31911
1655.2068,553.54,-0.31911
1655.2902,553.64,-0.31899
1655.3736,553.74,-0.31927
1655.4564,553.84,-0.31978
1655.5398,553.94,-0.32012
1655.6232,554.04,-0.32016
1655.7066,554.14,-0.31998
1655.79,554.24,-0.31977
1655.8734,554.34,-0.31985
1655.9568,554.44,-0.32054
1656.0402,554.54,-0.32152
1656.123,554.64,-0.32207
1656.2064,554.74,-0.32198
1656.2892,554.84,-0.32196
1656.3726,554.94,-0.32264
1656.456,555.04,-0.32362
1656.5394,555.14,-0.32415
1656.6222,555.24,-0.32409
1656.7056,555.34,-0.32401
1656.789,555.44,-0.32431
1656.8724,555.54,-0.32483
1656.9558,555.64,-0.32529
1657.0392,555.74,-0.32568
1657.122,555.84,-0.32613
1657.2054,555.94,-0.32665
1657.2888,556.04,-0.32699
1657.3722,556.14,-0.32694
1657.455,556.24,-0.32686
1657.5384,556.34,-0.32729
1657.6212,556.44,-0.32822
1657.7046,556.54,-0.32903
1657.7874,556.64,-0.32927
1657.8708,556.74,-0.3291
1657.9542,556.84,-0.32883
1658.0376,556.94,-0.32875
1658.1216,557.04,-0.32917
1658.2044,557.14,-0.33008
1658.2878,557.24,-0.33092
1658.3706,557.34,-0.33118
1658.454,557.44,-0.33106
1658.5374,557.54,-0.33103
1658.6208,557.64,-0.33135
1658.7042,557.74,-0.33204
1658.7876,557.84,-0.33302
1658.871,557.94,-0.33384
1658.9544,558.04,-0.33407
1659.0372,558.14,-0.33393
1659.1206,558.24,-0.33411
1659.2034,558.34,-0.3349
1659.2868,558.44,-0.33587
1659.3696,558.54,-0.33654
1659.4524,558.64,-0.3369
1659.5358,558.74,-0.33706
1659.6192,558.84,-0.33729
1659.702,558.94,-0.33803
1659.7848,559.04,-0.33944
1659.8676,559.14,-0.34074
1659.951,559.24,-0.341
1660.0338,559.34,-0.34041
1660.1172,559.44,-0.33997
1660.2006,559.54,-0.34028
1660.2834,559.64,-0.34089
1660.3668,559.74,-0.34133
1660.4496,559.84,-0.34168
1660.533,559.94,-0.34229
1660.6158,560.04,-0.34319
1660.6986,560.14,-0.34399
1660.7814,560.24,-0.34442
1660.8648,560.34,-0.34477
1660.9476,560.44,-0.34544
1661.031,560.54,-0.34636
1661.1138,560.64,-0.34709
1661.1966,560.74,-0.34744
1661.2794,560.84,-0.34783
1661.3622,560.94,-0.34872
1661.445,561.04,-0.3497
1661.5278,561.14,-0.34997
1661.6112,561.24,-0.34941
1661.694,561.34,-0.349
1661.7774,561.44,-0.34954
1661.8602,561.54,-0.35057
1661.943,561.64,-0.3513
1662.0264,561.74,-0.35161
1662.1092,561.84,-0.35208
1662.1926,561.94,-0.35302
1662.2754,562.04,-0.35387
1662.3588,562.14,-0.35402
1662.4416,562.24,-0.35383
1662.5244,562.34,-0.35423
1662.6072,562.44,-0.35552
1662.6894,562.54,-0.35687
1662.7722,562.64,-0.35753
1662.855,562.74,-0.35779
1662.9384,562.84,-0.3583
1663.0212,562.94,-0.3592
1663.104,563.04,-0.36003
1663.1862,563.14,-0.36049
1663.269,563.24,-0.36083
1663.3524,563.34,-0.3614
1663.4358,563.44,-0.36225
1663.5186,563.54,-0.36322
1663.6008,563.64,-0.36413
1663.6836,563.74,-0.36488
1663.7664,563.84,-0.36538
1663.8492,563.94,-0.36575
1663.9326,564.04,-0.36619
1664.0154,564.14,-0.36668
1664.0982,564.24,-0.367
1664.181,564.34,-0.36697
1664.2638,564.44,-0.36692
1664.346,564.54,-0.36726
1664.4288,564.64,-0.36808
1664.511,564.74,-0.36915
1664.5938,564.84,-0.37022
1664.6766,564.94,-0.37092
1664.7594,565.04,-0.37096
1664.8422,565.14,-0.37079
1664.925,565.24,-0.37125
1665.0078,565.34,-0.37256
1665.0912,565.44,-0.37389
1665.174,565.54,-0.37451
1665.2574,565.64,-0.37477
1665.3402,565.74,-0.37538
1665.423,565.84,-0.37636
1665.5052,565.94,-0.37702
1665.588,566.04,-0.37695
1665.6708,566.14,-0.37686
1665.7536,566.24,-0.3776
1665.8364,566.34,-0.379
1665.9192,566.44,-0.38022
1666.0014,566.54,-0.38077
1666.0836,566.64,-0.38097
1666.167,566.74,-0.38119
1666.2498,566.84,-0.38161
1666.3326,566.94,-0.38232
1666.4154,567.04,-0.38321
1666.4976,567.14,-0.38398
1666.5804,567.24,-0.38442
1666.6632,567.34,-0.38477
1666.7454,567.44,-0.3854
1666.8276,567.54,-0.38629
1666.9104,567.64,-0.38708
1666.9932,567.74,-0.38755
1667.0766,567.84,-0.38789
1667.1594,567.94,-0.38833
1667.2422,568.04,-0.38879
1667.3244,568.14,-0.38904
1667.4066,568.24,-0.38903
1667.4894,568.34,-0.38899
1667.5716,568.44,-0.38917
1667.6544,568.54,-0.38962
1667.7366,568.64,-0.39036
1667.8188,568.74,-0.39126
1667.901,568.84,-0.39201
1667.9838,568.94,-0.39243
1668.0666,569.04,-0.39279
1668.1494,569.14,-0.39344
1668.2322,569.24,-0.39434
1668.3144,569.34,-0.39511
1668.3972,569.44,-0.39555
1668.4794,569.54,-0.3959
1668.5622,569.64,-0.39638
1668.6444,569.74,-0.39686
1668.7272,569.84,-0.39698
1668.8094,569.94,-0.39678
1668.8916,570.04,-0.39694
1668.9744,570.14,-0.39799
1669.0572,570.24,-0.39941
1669.1394,570.34,-0.40033
1669.2222,570.44,-0.40065
1669.305,570.54,-0.40104
1669.3872,570.64,-0.40194
1669.4694,570.74,-0.40283
1669.5522,570.84,-0.40302
1669.6344,570.94,-0.40282
1669.7166,571.04,-0.40316
1669.7988,571.14,-0.40444
1669.8816,571.24,-0.40579
1669.9638,571.34,-0.4063
1670.0466,571.44,-0.40613
1670.1288,571.54,-0.406
1670.211,571.64,-0.40629
1670.2938,571.74,-0.40694
1670.376,571.84,-0.40781
1670.4582,571.94,-0.40866
1670.541,572.04,-0.40924
1670.6232,572.14,-0.40957
1670.706,572.24,-0.41005
1670.7882,572.34,-0.41087
1670.871,572.44,-0.41175
1670.9532,572.54,-0.41232
1671.036,572.64,-0.41265
1671.1182,572.74,-0.41315
1671.201,572.84,-0.41398
1671.2832,572.94,-0.41485
1671.3654,573.04,-0.41544
1671.4482,573.14,-0.41579
1671.5304,573.24,-0.41614
1671.612,573.34,-0.41657
1671.6942,573.44,-0.41698
1671.7764,573.54,-0.4173
1671.8592,573.64,-0.4177
1671.9414,573.74,-0.41839
1672.0242,573.84,-0.41929
1672.107,573.94,-0.42005
1672.1898,574.04,-0.42045
1672.2726,574.14,-0.42082
1672.3548,574.24,-0.42151
1672.437,574.34,-0.42242
1672.5198,574.44,-0.42313
1672.602,574.54,-0.42349
1672.6848,574.64,-0.42389
1672.767,574.74,-0.42468
1672.8492,574.84,-0.4256
1672.9314,574.94,-0.42612
1673.0142,575.04,-0.42612
1673.0964,575.14,-0.426
1673.1786,575.24,-0.42616
1673.2608,575.34,-0.42666
1673.343,575.44,-0.42744
1673.4252,575.54,-0.42833
1673.508,575.64,-0.42905
1673.5902,575.74,-0.42945
1673.6724,575.84,-0.42981
1673.7546,575.94,-0.4305
1673.8368,576.04,-0.43141
1673.919,576.14,-0.43213
1674.0012,576.24,-0.4325
1674.0834,576.34,-0.43288
1674.1656,576.44,-0.43361
1674.2478,576.54,-0.43452
1674.3306,576.64,-0.43521
1674.4122,576.74,-0.43559
1674.4944,576.84,-0.43597
1674.5766,576.94,-0.43663
1674.6588,577.04,-0.43752
1674.7404,577.14,-0.43848
1674.8226,577.24,-0.43936
1674.9048,577.34,-0.44003
1674.987,577.44,-0.44043
1675.0692,577.54,-0.4408
1675.1514,577.64,-0.44144
1675.2342,577.74,-0.44232
1675.3164,577.84,-0.44315
1675.3992,577.94,-0.44373
1675.4814,578.04,-0.44399
1675.5636,578.14,-0.44393
1675.6458,578.24,-0.44384
1675.728,578.34,-0.44419
1675.8102,578.44,-0.44505
1675.8924,578.54,-0.44594
1675.9746,578.64,-0.44645
1676.0568,578.74,-0.44678
1676.1384,578.84,-0.44728
1676.2206,578.94,-0.44808
1676.3028,579.04,-0.44903
1676.3844,579.14,-0.44997
1676.4666,579.24,-0.45075
1676.5488,579.34,-0.45128
1676.631,579.44,-0.45163
1676.7132,579.54,-0.45209
1676.796,579.64,-0.45283
1676.8782,579.74,-0.45375
1676.9604,579.84,-0.4547
1677.042,579.94,-0.45554
1677.1242,580.04,-0.45615
1677.2058,580.14,-0.45652
1677.288,580.24,-0.45692
1677.3696,580.34,-0.4576
1677.4518,580.44,-0.45847
1677.534,580.54,-0.45935
1677.6156,580.64,-0.46015
1677.6972,580.74,-0.46097
1677.7794,580.84,-0.46188
1677.861,580.94,-0.4627
1677.9426,581.04,-0.46324
1678.0236,581.14,-0.46357
1678.1052,581.24,-0.46404
1678.1874,581.34,-0.46487
1678.2696,581.44,-0.46575
1678.3518,581.54,-0.46629
1678.434,581.64,-0.4666
1678.5162,581.74,-0.46714
1678.5978,581.84,-0.46807
1678.6794,581.94,-0.46889
1678.7616,582.04,-0.46907
1678.8432,582.14,-0.46893
1678.9254,582.24,-0.46915
1679.0076,582.34,-0.46998
1679.0892,582.44,-0.4709
1679.1714,582.54,-0.47144
1679.253,582.64,-0.47176
1679.3352,582.74,-0.47226
1679.4168,582.84,-0.47308
1679.499,582.94,-0.47399
1679.5812,583.04,-0.4748
1679.6634,583.14,-0.4756
1679.7456,583.24,-0.47655
1679.8278,583.34,-0.47749
1679.91,583.44,-0.47803
1679.9916,583.54,-0.47802
1680.0738,583.64,-0.47794
1680.1554,583.74,-0.47835
1680.2376,583.84,-0.47924
1680.3198,583.94,-0.48022
1680.4014,584.04,-0.48106
1680.4836,584.14,-0.48184
1680.5658,584.24,-0.48266
1680.648,584.34,-0.48349
1680.7302,584.44,-0.48428
1680.8118,584.54,-0.48504
1680.8934,584.64,-0.48592
1680.975,584.74,-0.48697
1681.0566,584.84,-0.48781
1681.1388,584.94,-0.48796
1681.221,585.04,-0.48767
1681.3032,585.14,-0.48804
1681.3854,585.24,-0.48969
1681.467,585.34,-0.49154
1681.5492,585.44,-0.49219
1681.6314,585.54,-0.49163
1681.7136,585.64,-0.49092
1681.7952,585.74,-0.49085
1681.8768,585.84,-0.49162
1681.9584,585.94,-0.49324
1682.0406,586.04,-0.49508
1682.1228,586.14,-0.49618
1682.2044,586.24,-0.49619
1682.286,586.34,-0.49599
1682.3676,586.44,-0.4964
1682.4498,586.54,-0.49736
1682.5314,586.64,-0.49837
1682.6136,586.74,-0.4992
1682.6958,586.84,-0.49996
1682.7774,586.94,-0.50073
1682.8596,587.04,-0.50156
1682.9412,587.14,-0.50246
1683.0234,587.24,-0.50335
1683.105,587.34,-0.50404
1683.1872,587.44,-0.50445
1683.2688,587.54,-0.50481
1683.3504,587.64,-0.50541
1683.4326,587.74,-0.50625
1683.5142,587.84,-0.50715
1683.5964,587.94,-0.508
1683.678,588.04,-0.50879
1683.7596,588.14,-0.50957
1683.8418,588.24,-0.51038
1683.9234,588.34,-0.51126
1684.005,588.44,-0.51218
1684.0866,588.54,-0.51291
1684.1676,588.64,-0.51329
1684.2492,588.74,-0.51362
1684.3314,588.84,-0.51436
1684.4136,588.94,-0.5156
1684.4958,589.04,-0.51693
1684.5774,589.14,-0.51797
1684.659,589.24,-0.5187
1684.7406,589.34,-0.51926
1684.8228,589.44,-0.5197
1684.905,589.54,-0.52001
1684.9866,589.64,-0.52026
1685.0682,589.74,-0.52071
1685.1504,589.84,-0.52164
1685.232,589.94,-0.52295
1685.3136,590.04,-0.52418
1685.3952,590.14,-0.52507
1685.4768,590.24,-0.5258
1685.559,590.34,-0.52656
1685.6406,590.44,-0.52739
1685.7228,590.54,-0.52823
1685.805,590.64,-0.52903
1685.8872,590.74,-0.52986
1685.9688,590.84,-0.53076
1686.051,590.94,-0.5316
1686.1326,591.04,-0.5322
1686.2148,591.14,-0.53256
1686.297,591.24,-0.53298
1686.3792,591.34,-0.53368
1686.4608,591.44,-0.53456
1686.543,591.54,-0.53547
1686.6246,591.64,-0.5363
1686.7068,591.74,-0.53706
1686.7884,591.84,-0.53779
1686.8706,591.94,-0.53863
1686.9528,592.04,-0.53976
1687.0344,592.14,-0.54104
1687.116,592.24,-0.54221
1687.1976,592.34,-0.54309
1687.2792,592.44,-0.54382
1687.3608,592.54,-0.54456
1687.4424,592.64,-0.54538
1687.524,592.74,-0.54627
1687.6056,592.84,-0.54717
1687.6872,592.94,-0.54791
1687.7688,593.04,-0.54836
1687.8504,593.14,-0.54871
1687.932,593.24,-0.54926
1688.0136,593.34,-0.55008
1688.0952,593.44,-0.55095
1688.1768,593.54,-0.55171
1688.2584,593.64,-0.5525
1688.34,593.74,-0.55357
1688.421,593.84,-0.55486
1688.5026,593.94,-0.55603
1688.5842,594.04,-0.55686
1688.6652,594.14,-0.55761
1688.7468,594.24,-0.55865
1688.8284,594.34,-0.55994
1688.91,594.44,-0.56113
1688.991,594.54,-0.562
1689.0726,594.64,-0.56274
1689.1542,594.74,-0.56357
1689.2358,594.84,-0.56444
1689.3168,594.94,-0.56511
1689.3984,595.04,-0.5655
1689.48,595.14,-0.56587
1689.561,595.24,-0.56652
1689.642,595.34,-0.56738
1689.7236,595.44,-0.56824
1689.8058,595.54,-0.56901
1689.8874,595.64,-0.56985
1689.969,595.74,-0.57093
1690.0506,595.84,-0.5722
1690.1322,595.94,-0.57353
1690.2138,596.04,-0.57481
1690.2954,596.14,-0.57594
1690.377,596.24,-0.57687
1690.4586,596.34,-0.57764
1690.5408,596.44,-0.57836
1690.6224,596.54,-0.57913
1690.704,596.64,-0.58005
1690.7856,596.74,-0.58119
1690.8678,596.84,-0.58247
1690.9494,596.94,-0.58381
1691.0304,597.04,-0.58508
1691.1126,597.14,-0.58614
1691.1942,597.24,-0.58695
1691.2764,597.34,-0.58774
1691.358,597.44,-0.58875
1691.4396,597.54,-0.59
1691.5212,597.64,-0.59136
1691.6034,597.74,-0.59268
1691.685,597.84,-0.59382
1691.7672,597.94,-0.59468
1691.8488,598.04,-0.59544
1691.9304,598.14,-0.5964
1692.012,598.24,-0.59764
1692.0936,598.34,-0.59891
1692.1758,598.44,-0.59997
1692.2574,598.54,-0.60073
1692.339,598.64,-0.60118
1692.4206,598.74,-0.60148
1692.5022,598.84,-0.60202
1692.5832,598.94,-0.60304
1692.6648,599.04,-0.60439
1692.7464,599.14,-0.60579
1692.828,599.24,-0.60707
1692.9102,599.34,-0.60811
1692.9918,599.44,-0.60891
1693.0734,599.54,-0.6097
1693.155,599.64,-0.61073
1693.2366,599.74,-0.61198
1693.3182,599.84,-0.61329
1693.3998,599.94,-0.61453
1693.4814,600.04,-0.61573
1693.5636,600.14,-0.61692
1693.6452,600.24,-0.61814
1693.7268,600.34,-0.61943
1693.8078,600.44,-0.62073
1693.8894,600.54,-0.62187
1693.971,600.64,-0.62273
1694.0526,600.74,-0.62349
1694.1342,600.84,-0.62444
1694.2158,600.94,-0.62565
1694.2974,601.04,-0.62696
1694.379,601.14,-0.62821
1694.4606,601.24,-0.62942
1694.5416,601.34,-0.63062
1694.6238,601.44,-0.63185
1694.7054,601.54,-0.63308
1694.787,601.64,-0.63431
1694.8686,601.74,-0.63553
1694.9502,601.84,-0.63675
1695.0312,601.94,-0.63797
1695.1128,602.04,-0.6392
1695.1944,602.14,-0.64042
1695.276,602.24,-0.64164
1695.3576,602.34,-0.64287
1695.4392,602.44,-0.64409
1695.5202,602.54,-0.64531
1695.6018,602.64,-0.64653
1695.6828,602.74,-0.64774
1695.7644,602.84,-0.64896
1695.846,602.94,-0.65018
1695.927,603.04,-0.65142
1696.0086,603.14,-0.65266
1696.0902,603.24,-0.65386
1696.1712,603.34,-0.65499
1696.2528,603.44,-0.65619
1696.3344,603.54,-0.65766
1696.4154,603.64,-0.65936
1696.497,603.74,-0.66095
1696.5786,603.84,-0.6622
1696.6602,603.94,-0.66336
1696.7418,604.04,-0.66478
1696.8228,604.14,-0.66646
1696.9044,604.24,-0.66808
1696.986,604.34,-0.66939
1697.0676,604.44,-0.67054
1697.1492,604.54,-0.67173
1697.2308,604.64,-0.67297
1697.3118,604.74,-0.67417
1697.3934,604.84,-0.67531
1697.475,604.94,-0.67657
1697.5566,605.04,-0.67811
1697.6382,605.14,-0.67982
1697.7204,605.24,-0.68134
1697.802,605.34,-0.68256
1697.8836,605.44,-0.68374
1697.9658,605.54,-0.68516
1698.0474,605.64,-0.68684
1698.129,605.74,-0.68865
1698.2106,605.84,-0.69042
1698.2922,605.94,-0.69189
1698.3738,606.04,-0.69286
1698.4554,606.14,-0.69358
1698.537,606.24,-0.69443
1698.6186,606.34,-0.69559
1698.7002,606.44,-0.69701
1698.7818,606.54,-0.69859
1698.8628,606.64,-0.70025
1698.9444,606.74,-0.70188
1699.026,606.84,-0.7035
1699.1076,606.94,-0.70516
1699.1892,607.04,-0.7069
1699.2702,607.14,-0.7085
1699.3518,607.24,-0.70975
1699.434,607.34,-0.71085
1699.5156,607.44,-0.71234
1699.5972,607.54,-0.7144
1699.6788,607.64,-0.71651
1699.7604,607.74,-0.71813
1699.842,607.84,-0.71928
1699.9236,607.94,-0.7203
1700.0046,608.04,-0.72143
1700.0862,608.14,-0.72275
1700.1678,608.24,-0.72432
1700.2494,608.34,-0.72599
1700.3316,608.44,-0.7276
1700.4126,608.54,-0.72913
1700.4942,608.64,-0.73086
1700.5758,608.74,-0.73296
1700.6574,608.84,-0.73507
1700.739,608.94,-0.7367
1700.8212,609.04,-0.73785
1700.9028,609.14,-0.73905
1700.9844,609.24,-0.74064
1701.0654,609.34,-0.74235
1701.147,609.44,-0.74377
1701.2286,609.54,-0.74493
1701.3102,609.64,-0.74617
1701.3924,609.74,-0.74773
1701.4746,609.84,-0.74946
1701.5562,609.94,-0.75116
1701.6372,610.04,-0.75279
1701.7188,610.14,-0.75436
1701.8004,610.24,-0.75593
1701.882,610.34,-0.75761
1701.9636,610.44,-0.7595
1702.0452,610.54,-0.76157
1702.1268,610.64,-0.76371
1702.209,610.74,-0.76581
1702.2906,610.84,-0.76778
1702.3716,610.94,-0.76953
1702.4532,611.04,-0.77112
1702.5348,611.14,-0.77266
1702.6164,611.24,-0.77424
1702.6986,611.34,-0.77596
1702.7796,611.44,-0.7779
1702.8612,611.54,-0.77998
1702.9428,611.64,-0.78211
1703.0238,611.74,-0.78419
1703.1054,611.84,-0.78613
1703.187,611.94,-0.78787
1703.2686,612.04,-0.78944
1703.3502,612.14,-0.79089
1703.4318,612.24,-0.79243
1703.5134,612.34,-0.79435
1703.595,612.44,-0.79675
1703.6766,612.54,-0.7993
1703.7582,612.64,-0.80161
1703.8398,612.74,-0.80362
1703.9214,612.84,-0.80548
1704.003,612.94,-0.80722
1704.084,613.04,-0.80874
1704.1656,613.14,-0.80997
1704.2472,613.24,-0.81113
1704.3288,613.34,-0.81254
1704.4104,613.44,-0.81442
1704.492,613.54,-0.81674
1704.573,613.64,-0.81937
1704.6546,613.74,-0.82146
1704.7362,613.84,-0.822
1704.8178,613.94,-0.82145
1704.8988,614.04,-0.82198
1704.9804,614.14,-0.82518
1705.0626,614.24,-0.82987
1705.1442,614.34,-0.83417
1705.2252,614.44,-0.83702
1705.3068,614.54,-0.838
1705.3884,614.64,-0.83739
1705.47,614.74,-0.83736
1705.5516,614.84,-0.84022
1705.6332,614.94,-0.84499
1705.7154,615.04,-0.84838
1705.7964,615.14,-0.84868
1705.878,615.24,-0.84801
1705.9596,615.34,-0.84875
1706.0412,615.44,-0.85102
1706.1222,615.54,-0.85373
1706.2038,615.64,-0.8562
1706.2854,615.74,-0.85857
1706.367,615.84,-0.86103
1706.448,615.94,-0.8635
1706.5296,616.04,-0.86581
1706.6106,616.14,-0.86789
1706.6922,616.24,-0.86982
1706.7738,616.34,-0.87172
1706.8554,616.44,-0.87376
1706.937,616.54,-0.87612
1707.018,616.64,-0.87868
1707.0996,616.74,-0.88099
1707.1812,616.84,-0.88273
1707.2628,616.94,-0.88424
1707.3444,617.04,-0.88601
1707.426,617.14,-0.88809
1707.5076,617.24,-0.89018
1707.5892,617.34,-0.8921
1707.6708,617.44,-0.89415
1707.7524,617.54,-0.89669
1707.8334,617.64,-0.89961
1707.915,617.74,-0.90252
1707.9966,617.84,-0.90513
1708.0776,617.94,-0.90742
1708.1592,618.04,-0.90945
1708.2402,618.14,-0.91142
1708.3218,618.24,-0.91363
1708.4034,618.34,-0.91615
1708.485,618.44,-0.91859
1708.5666,618.54,-0.92063
1708.6482,618.64,-0.92257
1708.7298,618.74,-0.92495
1708.8114,618.84,-0.92787
1708.8924,618.94,-0.93076
1708.974,619.04,-0.93311
1709.0556,619.14,-0.93503
1709.1372,619.24,-0.93682
1709.2188,619.34,-0.93874
1709.3004,619.44,-0.94102
1709.3826,619.54,-0.94378
1709.4642,619.64,-0.94673
1709.5458,619.74,-0.94953
1709.628,619.84,-0.95203
1709.7096,619.94,-0.95425
1709.7912,620.04,-0.95628
1709.8728,620.14,-0.95829
1709.9544,620.24,-0.96049
1710.036,620.34,-0.96293
1710.1176,620.44,-0.9656
1710.1998,620.54,-0.96843
1710.2814,620.64,-0.97134
1710.363,620.74,-0.97423
1710.4446,620.84,-0.97708
1710.5262,620.94,-0.97991
1710.609,621.04,-0.9826
1710.6912,621.14,-0.98481
1710.7728,621.24,-0.98632
1710.8544,621.34,-0.98782
1710.936,621.44,-0.99024
1711.0182,621.54,-0.99362
1711.0998,621.64,-0.99699
1711.1814,621.74,-0.9996
1711.2636,621.84,-1.00189
1711.3458,621.94,-1.00457
1711.4274,622.04,-1.00759
1711.5096,622.14,-1.01027
1711.5912,622.24,-1.01225
1711.6728,622.34,-1.0142
1711.7544,622.44,-1.01692
1711.836,622.54,-1.02031
1711.9176,622.64,-1.02371
1711.9998,622.74,-1.02671
1712.0808,622.84,-1.0294
1712.1624,622.94,-1.03194
1712.244,623.04,-1.03438
1712.3256,623.14,-1.03671
1712.4072,623.24,-1.03902
1712.4894,623.34,-1.04163
1712.571,623.44,-1.04475
1712.6526,623.54,-1.04812
1712.7342,623.64,-1.05128
1712.8158,623.74,-1.05413
1712.8974,623.84,-1.05691
1712.9796,623.94,-1.05984
1713.0612,624.04,-1.06273
1713.1428,624.14,-1.06529
1713.2238,624.24,-1.06763
1713.3048,624.34,-1.07016
1713.3864,624.44,-1.07321
1713.4686,624.54,-1.07663
1713.5502,624.64,-1.08019
1713.6324,624.74,-1.08358
1713.714,624.84,-1.08643
1713.7956,624.94,-1.08861
1713.8772,625.04,-1.09047
1713.9588,625.14,-1.09245
1714.0404,625.24,-1.09486
1714.1226,625.34,-1.0979
1714.2042,625.44,-1.10157
1714.2864,625.54,-1.10539
1714.3686,625.64,-1.10891
1714.4502,625.74,-1.11212
1714.5318,625.84,-1.1152
1714.614,625.94,-1.11818
1714.6956,626.04,-1.12087
1714.7778,626.14,-1.12319
1714.86,626.24,-1.1256
1714.9416,626.34,-1.12869
1715.0232,626.44,-1.13244
1715.1054,626.54,-1.13623
1715.187,626.64,-1.13961
1715.2692,626.74,-1.14279
1715.3514,626.84,-1.14608
1715.433,626.94,-1.14943
1715.5146,627.04,-1.15253
1715.5968,627.14,-1.1553
1715.679,627.24,-1.15817
1715.7606,627.34,-1.16161
1715.8428,627.44,-1.16541
1715.925,627.54,-1.16906
1716.0066,627.64,-1.17233
1716.0888,627.74,-1.17554
1716.1704,627.84,-1.17896
1716.252,627.94,-1.18229
1716.3336,628.04,-1.18503
1716.4158,628.14,-1.1871
1716.498,628.24,-1.18895
1716.5796,628.34,-1.19119
1716.6618,628.44,-1.19514
1716.7434,628.54,-1.20202
1716.825,628.64,-1.20836
1716.9066,628.74,-1.20633
1716.9882,628.84,-1.19584
1717.0698,628.94,-1.20175
1717.1514,629.04,-1.25055
1717.2336,629.14,-1.3264
1717.3158,629.24,-1.38352
1717.398,629.34,-1.3966
1717.4802,629.44,-1.38807
1717.5618,629.54,-1.38432
1717.6434,629.64,-1.38931
1717.725,629.74,-1.39569
1717.8066,629.84,-1.39934
1717.8882,629.94,-1.40166
1717.9698,630.04,-1.40436
1718.052,630.14,-1.40776
1718.1342,630.24,-1.41166
1718.2158,630.34,-1.41582
1718.298,630.44,-1.41991
1718.3802,630.54,-1.42369
1718.4618,630.64,-1.42731
1718.544,630.74,-1.43099
1718.6256,630.84,-1.43472
1718.7072,630.94,-1.4383
1718.7894,631.04,-1.4417
1718.871,631.14,-1.44547
1718.9532,631.24,-1.45021
1719.0354,631.34,-1.45568
1719.117,631.44,-1.46107
1719.1992,631.54,-1.46584
1719.2808,631.64,-1.47008
1719.363,631.74,-1.47395
1719.4452,631.84,-1.47761
1719.5268,631.94,-1.48117
1719.6096,632.04,-1.48479
1719.6918,632.14,-1.48859
1719.7734,632.24,-1.49267
1719.855,632.34,-1.49681
1719.9366,632.44,-1.50072
1720.0188,632.54,-1.50436
1720.1004,632.64,-1.50803
1720.1826,632.74,-1.51189
1720.2654,632.84,-1.5156
1720.347,632.94,-1.51871
1720.4292,633.04,-1.52168
1720.5114,633.14,-1.52564
1720.5936,633.24,-1.53117
1720.6752,633.34,-1.53725
1720.7574,633.44,-1.5427
1720.839,633.54,-1.54718
1720.9206,633.64,-1.55085
1721.0022,633.74,-1.55389
1721.0844,633.84,-1.55652
1721.166,633.94,-1.55899
1721.2476,634.04,-1.56177
1721.3292,634.14,-1.56546
1721.4108,634.24,-1.57021
1721.4924,634.34,-1.57551
1721.5746,634.44,-1.58086
1721.6568,634.54,-1.58576
1721.739,634.64,-1.58977
1721.8212,634.74,-1.59299
1721.9034,634.84,-1.59613
1721.9856,634.94,-1.59979
1722.0678,635.04,-1.60411
1722.1494,635.14,-1.60908
1722.2316,635.24,-1.61448
1722.3132,635.34,-1.61986
1722.3954,635.44,-1.62493
1722.4776,635.54,-1.62972
1722.5592,635.64,-1.63427
1722.6414,635.74,-1.63843
1722.723,635.84,-1.6419
1722.8052,635.94,-1.64486
1722.8874,636.04,-1.64835
1722.9696,636.14,-1.65328
1723.0512,636.24,-1.65929
1723.1334,636.34,-1.66552
1723.2156,636.44,-1.67124
1723.2978,636.54,-1.67589
1723.38,636.64,-1.67916
1723.4622,636.74,-1.68176
1723.5444,636.84,-1.68465
1723.6266,636.94,-1.68825
1723.7088,637.04,-1.69248
1723.791,637.14,-1.69723
1723.8738,637.24,-1.70234
1723.9566,637.34,-1.70762
1724.0388,637.44,-1.71269
1724.121,637.54,-1.71701
1724.2032,637.64,-1.72056
1724.2848,637.74,-1.72424
1724.367,637.84,-1.72889
1724.4492,637.94,-1.7344
1724.5314,638.04,-1.74021
1724.6136,638.14,-1.746
1724.6958,638.24,-1.75172
1724.7786,638.34,-1.75727
1724.8608,638.44,-1.76212
1724.943,638.54,-1.76568
1725.0252,638.64,-1.76808
1725.108,638.74,-1.77021
1725.1902,638.84,-1.77285
1725.2724,638.94,-1.77649
1725.3546,639.04,-1.78148
1725.4368,639.14,-1.7874
1725.519,639.24,-1.79331
1725.6012,639.34,-1.79869
1725.684,639.44,-1.80394
1725.7662,639.54,-1.80945
1725.8484,639.64,-1.81491
1725.9312,639.74,-1.81969
1726.0134,639.84,-1.82375
1726.0962,639.94,-1.82779
1726.1784,640.04,-1.83242
1726.2606,640.14,-1.83751
1726.3428,640.24,-1.84272
1726.425,640.34,-1.84776
1726.5072,640.44,-1.85237
1726.5894,640.54,-1.85647
1726.6722,640.64,-1.86054
1726.7544,640.74,-1.86509
1726.8372,640.84,-1.8701
1726.9194,640.94,-1.87518
1727.0022,641.04,-1.88011
1727.0844,641.14,-1.88504
1727.1666,641.24,-1.89018
1727.2488,641.34,-1.89554
1727.331,641.44,-1.90113
1727.4132,641.54,-1.90688
1727.496,641.64,-1.91271
1727.5782,641.74,-1.91847
1727.661,641.84,-1.92377
1727.7432,641.94,-1.92818
1727.8254,642.04,-1.93181
1727.9082,642.14,-1.93537
1727.9904,642.24,-1.93932
1728.0732,642.34,-1.94358
1728.156,642.44,-1.94796
1728.2382,642.54,-1.95246
1728.321,642.64,-1.95724
1728.4032,642.74,-1.96241
1728.4854,642.84,-1.96798
1728.5676,642.94,-1.97394
1728.6498,643.04,-1.98017
1728.7326,643.14,-1.98648
1728.8148,643.24,-1.99255
1728.8976,643.34,-1.99788
1728.981,643.44,-2.00218
1729.0638,643.54,-2.00613
1729.1466,643.64,-2.0106
1729.2288,643.74,-2.01491
1729.311,643.84,-2.0171
1729.3938,643.94,-2.01657
1729.4766,644.04,-2.01644
1729.5594,644.14,-2.02008
1729.6422,644.24,-2.02688
1729.725,644.34,-2.03402
1729.8072,644.44,-2.03996
1729.8894,644.54,-2.04533
1729.9722,644.64,-2.0508
1730.055,644.74,-2.05623
1730.1378,644.84,-2.06118
1730.2206,644.94,-2.06567
1730.3034,645.04,-2.07019
1730.3856,645.14,-2.07519
1730.4684,645.24,-2.08073
1730.5512,645.34,-2.08679
1730.634,645.44,-2.09309
1730.7162,645.54,-2.09917
1730.799,645.64,-2.10476
1730.8818,645.74,-2.1099
1730.964,645.84,-2.11474
1731.0462,645.94,-2.11962
1731.129,646.04,-2.12494
1731.2118,646.14,-2.13077
1731.2946,646.24,-2.13664
1731.3774,646.34,-2.14215
1731.4596,646.44,-2.14742
1731.5424,646.54,-2.15273
1731.6246,646.64,-2.1579
1731.7074,646.74,-2.16236
1731.7902,646.84,-2.16593
1731.873,646.94,-2.16959
1731.9558,647.04,-2.17444
1732.038,647.14,-2.18037
1732.1202,647.24,-2.18648
1732.203,647.34,-2.19226
1732.2858,647.44,-2.19798
1732.368,647.54,-2.20396
1732.4508,647.64,-2.21021
1732.5336,647.74,-2.21662
1732.6164,647.84,-2.22298
1732.6992,647.94,-2.22896
1732.782,648.04,-2.23429
1732.8648,648.14,-2.23909
1732.9476,648.24,-2.24353
1733.0304,648.34,-2.24796
1733.1132,648.44,-2.25283
1733.196,648.54,-2.25839
1733.2794,648.64,-2.26444
1733.3622,648.74,-2.27067
1733.445,648.84,-2.27691
1733.5278,648.94,-2.28302
1733.6112,649.04,-2.28891
1733.694,649.14,-2.2946
1733.7768,649.24,-2.30011
1733.8596,649.34,-2.30545
1733.9424,649.44,-2.31066
1734.0258,649.54,-2.31593
1734.1086,649.64,-2.32163
1734.1914,649.74,-2.32789
1734.2742,649.84,-2.33415
1734.3564,649.94,-2.33979
1734.4392,650.04,-2.34502
1734.522,650.14,-2.35055
1734.6054,650.24,-2.35672
1734.6882,650.34,-2.36312
1734.771,650.44,-2.3693
1734.8538,650.54,-2.37505
1734.9366,650.64,-2.38022
1735.02,650.74,-2.38505
1735.1034,650.84,-2.39021
1735.1862,650.94,-2.39615
1735.2684,651.04,-2.40255
1735.3518,651.14,-2.40896
1735.4346,651.24,-2.4152
1735.518,651.34,-2.42131
1735.6014,651.44,-2.4273
1735.6848,651.54,-2.43299
1735.7676,651.64,-2.43826
1735.8504,651.74,-2.44317
1735.9332,651.84,-2.44787
1736.016,651.94,-2.45265
1736.0988,652.04,-2.45793
1736.1822,652.14,-2.46406
1736.265,652.24,-2.47094
1736.3478,652.34,-2.47834
1736.4312,652.44,-2.48591
1736.514,652.54,-2.49317
1736.5968,652.64,-2.49976
1736.6796,652.74,-2.50567
1736.763,652.84,-2.51094
1736.8464,652.94,-2.51585
1736.9292,653.04,-2.52076
1737.0126,653.14,-2.52599
1737.096,653.24,-2.53172
1737.1794,653.34,-2.538
1737.2622,653.44,-2.54432
1737.3456,653.54,-2.55002
1737.429,653.64,-2.55527
1737.5124,653.74,-2.56091
1737.5958,653.84,-2.56744
1737.6786,653.94,-2.57429
1737.762,654.04,-2.58082
1737.8454,654.14,-2.587
1737.9288,654.24,-2.59313
1738.0116,654.34,-2.59917
1738.0944,654.44,-2.60466
1738.1772,654.54,-2.60924
1738.2606,654.64,-2.61366
1738.3434,654.74,-2.61889
1738.4268,654.84,-2.62513
1738.5102,654.94,-2.63181
1738.5936,655.04,-2.63849
1738.677,655.14,-2.64515
1738.7604,655.24,-2.65183
1738.8432,655.34,-2.65851
1738.9272,655.44,-2.66512
1739.0106,655.54,-2.67139
1739.094,655.64,-2.67668
1739.1774,655.74,-2.68059
1739.2602,655.84,-2.68408
1739.3436,655.94,-2.68851
1739.427,656.04,-2.69428
1739.511,656.14,-2.70088
1739.5944,656.24,-2.70779
1739.6778,656.34,-2.71436
1739.7606,656.44,-2.72005
1739.844,656.54,-2.72494
1739.9274,656.64,-2.72946
1740.0102,656.74,-2.73413
1740.093,656.84,-2.73952
1740.1764,656.94,-2.74599
1740.2598,657.04,-2.75285
1740.3426,657.14,-2.75906
1740.426,657.24,-2.76444
1740.5094,657.34,-2.76961
1740.5934,657.44,-2.77502
1740.6762,657.54,-2.78048
1740.7596,657.64,-2.78577
1740.8424,657.74,-2.79108
1740.9258,657.84,-2.79688
1741.0092,657.94,-2.8032
1741.0926,658.04,-2.80946
1741.1754,658.14,-2.81512
1741.2588,658.24,-2.82039
1741.3416,658.34,-2.82568
1741.425,658.44,-2.83113
1741.5084,658.54,-2.83652
1741.5912,658.64,-2.8418
1741.6746,658.74,-2.84725
1741.758,658.84,-2.85318
1741.8414,658.94,-2.8595
1741.9248,659.04,-2.86587
1742.0076,659.14,-2.87211
1742.091,659.24,-2.87831
1742.1744,659.34,-2.88453
1742.2578,659.44,-2.89036
1742.3412,659.54,-2.89528
1742.424,659.64,-2.89938
1742.5074,659.74,-2.90337
1742.5908,659.84,-2.90789
1742.6748,659.94,-2.9132
1742.7582,660.04,-2.91947
1742.8416,660.14,-2.92629
1742.925,660.24,-2.93292
1743.0078,660.34,-2.93894
1743.0912,660.44,-2.94445
1743.1746,660.54,-2.94962
1743.258,660.64,-2.95457
1743.342,660.74,-2.95942
1743.4254,660.84,-2.96435
1743.5094,660.94,-2.9696
1743.5928,661.04,-2.97532
1743.6768,661.14,-2.98131
1743.7602,661.24,-2.98733
1743.8436,661.34,-2.9932
1743.9276,661.44,-2.99882
1744.0116,661.54,-3.00421
1744.0956,661.64,-3.00968
1744.179,661.74,-3.01548
1744.2624,661.84,-3.02139
1744.3458,661.94,-3.02707
1744.4292,662.04,-3.03248
1744.5132,662.14,-3.03784
1744.5972,662.24,-3.04329
1744.6812,662.34,-3.04878
1744.7646,662.44,-3.05422
1744.848,662.54,-3.05963
1744.9314,662.64,-3.06505
1745.0154,662.74,-3.0705
1745.0994,662.84,-3.07597
1745.1834,662.94,-3.08144
1745.2674,663.04,-3.08688
1745.3514,663.14,-3.0923
1745.4354,663.24,-3.09774
1745.5188,663.34,-3.10327
1745.6028,663.44,-3.10898
1745.6862,663.54,-3.11499
1745.7702,663.64,-3.12141
1745.8542,663.74,-3.12819
1745.9382,663.84,-3.13526
1746.0222,663.94,-3.14224
1746.1062,664.04,-3.14841
1746.1896,664.14,-3.15336
1746.273,664.24,-3.15765
1746.357,664.34,-3.16198
1746.441,664.44,-3.1666
1746.525,664.54,-3.17149
1746.6084,664.64,-3.17669
1746.6918,664.74,-3.18242
1746.7758,664.84,-3.18882
1746.8604,664.94,-3.19569
1746.9444,665.04,-3.20268
1747.0284,665.14,-3.20951
1747.1118,665.24,-3.21588
1747.1958,665.34,-3.22172
1747.2792,665.44,-3.22751
1747.3632,665.54,-3.23378
1747.4472,665.64,-3.24057
1747.5312,665.74,-3.24768
1747.6152,665.84,-3.2547
1747.6992,665.94,-3.26094
1747.7826,666.04,-3.266
1747.8666,666.14,-3.27083
1747.95,666.24,-3.27666
1748.034,666.34,-3.2835
1748.118,666.44,-3.29048
1748.202,666.54,-3.29697
1748.286,666.64,-3.30302
1748.3694,666.74,-3.30873
1748.4534,666.84,-3.31413
1748.5374,666.94,-3.31921
1748.6208,667.04,-3.32414
1748.7048,667.14,-3.32932
1748.7894,667.24,-3.33501
1748.8734,667.34,-3.34106
1748.958,667.44,-3.34723
1749.042,667.54,-3.35319
1749.126,667.64,-3.3586
1749.2106,667.74,-3.36352
1749.2946,667.84,-3.36865
1749.3786,667.94,-3.3746
1749.4626,668.04,-3.38108
1749.5466,668.14,-3.38757
1749.6312,668.24,-3.39389
1749.7152,668.34,-3.40013
1749.7998,668.44,-3.40639
1749.8838,668.54,-3.41276
1749.9684,668.64,-3.41926
1750.0524,668.74,-3.42563
1750.137,668.84,-3.43149
1750.2216,668.94,-3.43689
1750.3056,669.04,-3.44238
1750.3896,669.14,-3.4483
1750.4742,669.24,-3.45425
1750.5582,669.34,-3.45974
1750.6428,669.44,-3.46507
1750.7268,669.54,-3.47101
1750.8114,669.64,-3.47778
1750.896,669.74,-3.48467
1750.9806,669.84,-3.49104
1751.0652,669.94,-3.49678
1751.1492,670.04,-3.50198
1751.2332,670.14,-3.50694
1751.3178,670.24,-3.51213
1751.4024,670.34,-3.51785
1751.4864,670.44,-3.52399
1751.5704,670.54,-3.53036
1751.6544,670.64,-3.53669
1751.7384,670.74,-3.54268
1751.8224,670.84,-3.54844
1751.907,670.94,-3.55454
1751.9916,671.04,-3.56131
1752.0762,671.14,-3.56815
1752.1602,671.24,-3.57438
1752.2442,671.34,-3.58014
1752.3282,671.44,-3.58601
1752.4122,671.54,-3.59192
1752.4968,671.64,-3.59684
1752.5808,671.74,-3.60018
1752.6648,671.84,-3.6038
1752.7488,671.94,-3.60996
1752.8334,672.04,-3.617
1752.9174,672.14,-3.62009
1753.002,672.24,-3.61821
1753.086,672.34,-3.61899
1753.17,672.44,-3.62929
1753.254,672.54,-3.64347
1753.338,672.64,-3.65107
1753.4226,672.74,-3.65029
1753.5066,672.84,-3.64909
1753.5906,672.94,-3.65337
1753.6752,673.04,-3.66079
1753.7598,673.14,-3.66765
1753.8444,673.24,-3.673
1753.929,673.34,-3.67747
1754.0124,673.44,-3.68162
1754.0964,673.54,-3.68583
1754.181,673.64,-3.69044
1754.2662,673.74,-3.69568
1754.3508,673.84,-3.7017
1754.4348,673.94,-3.70817
1754.5194,674.04,-3.71434
1754.6034,674.14,-3.71986
1754.688,674.24,-3.72522
1754.7726,674.34,-3.73093
1754.8572,674.44,-3.73693
1754.9418,674.54,-3.74295
1755.0264,674.64,-3.74888
1755.111,674.74,-3.75477
1755.1956,674.84,-3.76056
1755.2808,674.94,-3.76588
1755.3648,675.04,-3.77045
1755.4494,675.14,-3.77492
1755.534,675.24,-3.78037
1755.6186,675.34,-3.78688
1755.7038,675.44,-3.79325
1755.7884,675.54,-3.79848
1755.873,675.64,-3.80276
1755.9582,675.74,-3.80657
1756.0428,675.84,-3.81065
1756.128,675.94,-3.81591
1756.2126,676.04,-3.82238
1756.2966,676.14,-3.82878
1756.3812,676.24,-3.834
1756.4664,676.34,-3.83836
1756.551,676.44,-3.84251
1756.6362,676.54,-3.84675
1756.7208,676.64,-3.85107
1756.8054,676.74,-3.85553
1756.8894,676.84,-3.86037
1756.9746,676.94,-3.86574
1757.0592,677.04,-3.87136
1757.1438,677.14,-3.87676
1757.2284,677.24,-3.88184
1757.3136,677.34,-3.88677
1757.3982,677.44,-3.89174
1757.4834,677.54,-3.89695
1757.5686,677.64,-3.90251
1757.6532,677.74,-3.9081
1757.7378,677.84,-3.91318
1757.823,677.94,-3.91776
1757.9076,678.04,-3.92245
1757.9928,678.14,-3.92762
1758.078,678.24,-3.93275
1758.1626,678.34,-3.93727
1758.2472,678.44,-3.94138
1758.3324,678.54,-3.94572
1758.4176,678.64,-3.95045
1758.5022,678.74,-3.95512
1758.5868,678.84,-3.95939
1758.672,678.94,-3.96356
1758.7566,679.04,-3.96804
1758.8418,679.14,-3.97278
1758.927,679.24,-3.97745
1759.0116,679.34,-3.98199
1759.0968,679.44,-3.9868
1759.182,679.54,-3.99219
1759.2672,679.64,-3.99784
1759.3518,679.74,-4.00328
1759.437,679.84,-4.00838
1759.5216,679.94,-4.01324
1759.6068,680.04,-4.01796
1759.6914,680.14,-4.02256
1759.7766,680.24,-4.02703
1759.8618,680.34,-4.03125
1759.947,680.44,-4.03506
1760.0322,680.54,-4.03873
1760.1174,680.64,-4.04294
1760.2026,680.74,-4.04796
1760.2872,680.84,-4.05323
1760.3724,680.94,-4.05817
1760.4576,681.04,-4.06276
1760.5422,681.14,-4.06721
1760.6274,681.24,-4.07154
1760.7126,681.34,-4.07555
1760.7978,681.44,-4.07925
1760.883,681.54,-4.08315
1760.9682,681.64,-4.08776
1761.0534,681.74,-4.09299
1761.138,681.84,-4.09847
1761.2226,681.94,-4.10378
1761.3078,682.04,-4.10837
1761.3924,682.14,-4.11199
1761.4776,682.24,-4.11516
1761.5634,682.34,-4.11853
1761.6486,682.44,-4.12239
1761.7338,682.54,-4.12683
1761.8184,682.64,-4.13183
1761.9036,682.74,-4.13724
1761.9894,682.84,-4.14278
1762.0752,682.94,-4.14776
1762.1604,683.04,-4.15151
1762.2456,683.14,-4.15432
1762.3314,683.24,-4.15702
1762.4166,683.34,-4.1602
1762.5012,683.44,-4.16407
1762.5864,683.54,-4.16877
1762.6716,683.64,-4.17412
1762.7568,683.74,-4.17985
1762.842,683.84,-4.18551
1762.9278,683.94,-4.19053
1763.0136,684.04,-4.1948
1763.0988,684.14,-4.19894
1763.184,684.24,-4.20345
1763.2692,684.34,-4.20825
1763.3544,684.44,-4.21306
1763.4396,684.54,-4.21777
1763.5254,684.64,-4.22232
1763.6106,684.74,-4.22652
1763.6964,684.84,-4.22989
1763.7828,684.94,-4.23226
1763.8686,685.04,-4.23476
1763.9544,685.14,-4.23869
1764.0396,685.24,-4.24276
1764.1248,685.34,-4.24385
1764.21,685.44,-4.24217
1764.2958,685.54,-4.24371
1764.381,685.64,-4.25301
1764.4668,685.74,-4.26518
1764.5526,685.84,-4.27303
1764.6384,685.94,-4.27584
1764.7236,686.04,-4.27762
1764.8094,686.14,-4.28082
1764.8952,686.24,-4.28477
1764.981,686.34,-4.28867
1765.0668,686.44,-4.2925
1765.1526,686.54,-4.29645
1765.2384,686.64,-4.30039
1765.3242,686.74,-4.30394
1765.41,686.84,-4.30697
1765.4958,686.94,-4.30986
1765.5816,687.04,-4.31297
1765.6674,687.14,-4.31651
1765.7532,687.24,-4.32059
1765.839,687.34,-4.32498
1765.9248,687.44,-4.32917
1766.0106,687.54,-4.33281
1766.0958,687.64,-4.33587
1766.1816,687.74,-4.33842
1766.2668,687.84,-4.34092
1766.3526,687.94,-4.34392
1766.4384,688.04,-4.34742
1766.5242,688.14,-4.35101
1766.61,688.24,-4.35446
1766.6958,688.34,-4.35783
1766.7816,688.44,-4.3612
1766.8674,688.54,-4.36465
1766.9526,688.64,-4.36822
1767.0384,688.74,-4.37173
1767.1242,688.84,-4.3748
1767.21,688.94,-4.37736
1767.2952,689.04,-4.37986
1767.381,689.14,-4.38268
1767.4662,689.24,-4.38577
1767.552,689.34,-4.38889
1767.6378,689.44,-4.39191
1767.723,689.54,-4.39474
1767.8082,689.64,-4.39734
1767.894,689.74,-4.39982
1767.9792,689.84,-4.4023
1768.0644,689.94,-4.40488
1768.1502,690.04,-4.40764
1768.2354,690.14,-4.41063
1768.3212,690.24,-4.4138
1768.407,690.34,-4.41698
1768.4922,690.44,-4.41979
1768.5786,690.54,-4.42194
1768.6644,690.64,-4.42399
1768.7508,690.74,-4.4267
1768.8366,690.84,-4.42988
1768.9224,690.94,-4.43262
1769.007,691.04,-4.4346
1769.0922,691.14,-4.43676
1769.178,691.24,-4.43992
1769.2644,691.34,-4.44357
1769.3502,691.44,-4.44679
1769.4366,691.54,-4.44935
1769.5224,691.64,-4.45155
1769.6076,691.74,-4.45367
1769.6934,691.84,-4.45583
1769.7792,691.94,-4.45818
1769.865,692.04,-4.46081
1769.9508,692.14,-4.46382
1770.0366,692.24,-4.46694
1770.1224,692.34,-4.46964
1770.2088,692.44,-4.47176
1770.2946,692.54,-4.47386
1770.381,692.64,-4.47641
1770.4668,692.74,-4.47907
1770.5526,692.84,-4.48129
1770.6384,692.94,-4.48328
1770.7242,693.04,-4.4858
1770.81,693.14,-4.48899
1770.8964,693.24,-4.4919
1770.9822,693.34,-4.49376
1771.0686,693.44,-4.4953
1771.1544,693.54,-4.49753
1771.2402,693.64,-4.50029
1771.3254,693.74,-4.50258
1771.4112,693.84,-4.50412
1771.497,693.94,-4.50591
1771.5828,694.04,-4.50875
1771.6686,694.14,-4.51195
1771.755,694.24,-4.51453
1771.8408,694.34,-4.51621
1771.926,694.44,-4.51728
1772.0118,694.54,-4.51806
1772.0976,694.64,-4.51897
1772.1834,694.74,-4.52035
1772.2698,694.84,-4.52223
1772.3556,694.94,-4.52453
1772.442,695.04,-4.52713
1772.5278,695.14,-4.52992
1772.6142,695.24,-4.53267
1772.7,695.34,-4.535
1772.7858,695.44,-4.53671
1772.8716,695.54,-4.53835
1772.958,695.64,-4.54061
1773.0438,695.74,-4.54332
1773.1302,695.84,-4.54581
1773.2166,695.94,-4.54787
1773.303,696.04,-4.55009
1773.3894,696.14,-4.55279
1773.4752,696.24,-4.55538
1773.561,696.34,-4.55714
1773.6462,696.44,-4.55828
1773.732,696.54,-4.55952
1773.8184,696.64,-4.56101
1773.9042,696.74,-4.56203
1773.9906,696.84,-4.56223
1774.077,696.94,-4.56267
1774.1634,697.04,-4.56455
1774.2498,697.14,-4.5674
1774.3356,697.24,-4.56994
1774.422,697.34,-4.57166
1774.5078,697.44,-4.57314
1774.5942,697.54,-4.57483
1774.6806,697.64,-4.57661
1774.767,697.74,-4.57831
1774.8528,697.84,-4.58001
1774.9392,697.94,-4.58189
1775.025,698.04,-4.58402
1775.1114,698.14,-4.58631
1775.1972,698.24,-4.5886
1775.2836,698.34,-4.59066
1775.3694,698.44,-4.59223
1775.4552,698.54,-4.59343
1775.541,698.64,-4.59452
1775.6268,698.74,-4.59572
1775.7132,698.84,-4.59726
1775.799,698.94,-4.59915
1775.8848,699.04,-4.60079
1775.9706,699.14,-4.60162
1776.057,699.24,-4.60189
1776.1428,699.34,-4.60218
1776.2292,699.44,-4.60289
1776.3156,699.54,-4.60433
1776.402,699.64,-4.60661
1776.4884,699.74,-4.60956
1776.5748,699.84,-4.61286
1776.6612,699.94,-4.61543
1776.7476,700.04,-4.61606
1776.834,700.14,-4.61556
1776.9204,700.24,-4.61647
1777.0068,700.34,-4.61974
1777.0932,700.44,-4.62285
1777.1796,700.54,-4.6235
1777.266,700.64,-4.62248
1777.3518,700.74,-4.6215
1777.4382,700.84,-4.62141
1777.524,700.94,-4.62239
1777.6104,701.04,-4.62421
1777.6968,701.14,-4.62595
1777.7832,701.24,-4.62689
1777.8696,701.34,-4.62762
1777.9554,701.44,-4.62899
1778.0418,701.54,-4.63087
1778.1288,701.64,-4.63244
1778.2158,701.74,-4.63353
1778.3028,701.84,-4.63506
1778.3892,701.94,-4.63764
1778.4756,702.04,-4.64038
1778.5626,702.14,-4.64214
1778.649,702.24,-4.64286
1778.7354,702.34,-4.64304
1778.8224,702.44,-4.64303
1778.9088,702.54,-4.643
1778.9952,702.64,-4.64303
1779.0816,702.74,-4.64302
1779.168,702.84,-4.64289
1779.255,702.94,-4.64286
1779.3414,703.04,-4.64327
1779.4278,703.14,-4.64416
1779.5148,703.24,-4.64516
1779.6012,703.34,-4.64605
1779.6882,703.44,-4.64688
1779.7746,703.54,-4.64774
1779.8616,703.64,-4.64862
1779.9486,703.74,-4.64948
1780.035,703.84,-4.65033
1780.1214,703.94,-4.65123
1780.2078,704.04,-4.65215
1780.2948,704.14,-4.65296
1780.3818,704.24,-4.65352
1780.4682,704.34,-4.65389
1780.5552,704.44,-4.6542
1780.6422,704.54,-4.6546
1780.7286,704.64,-4.65526
1780.8156,704.74,-4.65616
1780.902,704.84,-4.65702
1780.9884,704.94,-4.65757
1781.0754,705.04,-4.65792
1781.1624,705.14,-4.65821
1781.2494,705.24,-4.65863
1781.3364,705.34,-4.65935
1781.4234,705.44,-4.66029
1781.5104,705.54,-4.66107
1781.5968,705.64,-4.66148
1781.6838,705.74,-4.66189
1781.7702,705.84,-4.66267
1781.8572,705.94,-4.66362
1781.9442,706.04,-4.66427
1782.0312,706.14,-4.66462
1782.1182,706.24,-4.66515
1782.2052,706.34,-4.66605
1782.2922,706.44,-4.66694
1782.3786,706.54,-4.66744
1782.465,706.64,-4.6678
1782.552,706.74,-4.66843
1782.6396,706.84,-4.66935
1782.7272,706.94,-4.67027
1782.8142,707.04,-4.6709
1782.9006,707.14,-4.671
1782.9876,707.24,-4.67049
1783.0746,707.34,-4.67002
1783.1616,707.44,-4.6703
1783.2486,707.54,-4.67128
1783.3356,707.64,-4.67249
1783.4226,707.74,-4.6735
1783.509,707.84,-4.67402
1783.5966,707.94,-4.67399
1783.6836,708.04,-4.67395
1783.7706,708.14,-4.67448
1783.8576,708.24,-4.67547
1783.944,708.34,-4.67651
1784.031,708.44,-4.67741
1784.118,708.54,-4.67814
1784.2056,708.64,-4.67869
1784.2926,708.74,-4.67899
1784.3796,708.84,-4.67902
1784.4666,708.94,-4.67898
1784.553,709.04,-4.67913
1784.64,709.14,-4.67956
1784.727,709.24,-4.68023
1784.814,709.34,-4.68106
1784.9004,709.44,-4.68201
1784.9874,709.54,-4.68298
1785.0744,709.64,-4.68381
1785.1614,709.74,-4.68434
1785.2484,709.84,-4.68471
1785.3348,709.94,-4.68526
1785.4224,710.04,-4.68612
1785.5094,710.14,-4.68711
1785.5964,710.24,-4.68807
1785.6834,710.34,-4.68888
1785.7704,710.44,-4.68942
1785.8574,710.54,-4.68981
1785.945,710.64,-4.69023
1786.032,710.74,-4.6907
1786.119,710.84,-4.69106
1786.206,710.94,-4.69132
1786.293,711.04,-4.69192
1786.38,711.14,-4.69319
1786.467,711.24,-4.69459
1786.554,711.34,-4.69541
1786.641,711.44,-4.69572
1786.728,711.54,-4.69622
1786.815,711.64,-4.69714
1786.902,711.74,-4.69802
1786.9896,711.84,-4.6985
1787.0766,711.94,-4.69887
1787.1642,712.04,-4.69951
1787.2512,712.14,-4.70044
1787.3382,712.24,-4.70144
1787.4258,712.34,-4.70236
1787.5128,712.44,-4.70309
1787.6004,712.54,-4.7036
1787.688,712.64,-4.70396
1787.7756,712.74,-4.70427
1787.8632,712.84,-4.70472
1787.9508,712.94,-4.7055
1788.0384,713.04,-4.70646
1788.126,713.14,-4.70716
1788.2136,713.24,-4.70751
1788.3006,713.34,-4.70801
1788.3882,713.44,-4.70899
1788.4758,713.54,-4.70988
1788.5634,713.64,-4.71
1788.6504,713.74,-4.70982
1788.738,713.84,-4.71041
1788.8256,713.94,-4.71188
1788.9132,714.04,-4.71313
1789.0002,714.14,-4.71354
1789.0878,714.24,-4.7139
1789.1754,714.34,-4.71495
1789.263,714.44,-4.71593
1789.3506,714.54,-4.7156
1789.4382,714.64,-4.7144
1789.5252,714.74,-4.71411
1789.6128,714.84,-4.71541
1789.7004,714.94,-4.717
1789.788,715.04,-4.71774
1789.8756,715.14,-4.71794
1789.9638,715.24,-4.71826
1790.0514,715.34,-4.71874
1790.139,715.44,-4.71917
1790.2266,715.54,-4.71954
1790.3142,715.64,-4.72012
1790.4012,715.74,-4.72102
1790.4888,715.84,-4.7219
1790.5758,715.94,-4.72246
1790.6634,716.04,-4.72283
1790.7516,716.14,-4.7233
1790.8392,716.24,-4.7238
1790.9268,716.34,-4.72402
1791.0144,716.44,-4.72392
1791.102,716.54,-4.72401
1791.1896,716.64,-4.72467
1791.2772,716.74,-4.72571
1791.3648,716.84,-4.7268
1791.4524,716.94,-4.72769
1791.54,717.04,-4.72814
1791.6276,717.14,-4.72814
1791.7152,717.24,-4.72797
1791.8034,717.34,-4.72785
1791.891,717.44,-4.72797
1791.9792,717.54,-4.72841
1792.0668,717.64,-4.7289
1792.1544,717.74,-4.72903
1792.2426,717.84,-4.72894
1792.3302,717.94,-4.72912
1792.4184,718.04,-4.72965
1792.506,718.14,-4.73001
1792.5936,718.24,-4.7299
1792.6812,718.34,-4.72991
1792.7694,718.44,-4.73065
1792.857,718.54,-4.73168
1792.9452,718.64,-4.73209
1793.0334,718.74,-4.73193
1793.1216,718.84,-4.73213
1793.2092,718.94,-4.73309
1793.2968,719.04,-4.73398
1793.385,719.14,-4.73413
1793.4726,719.24,-4.73398
1793.5608,719.34,-4.73425
1793.649,719.44,-4.7348
1793.7372,719.54,-4.73501
1793.8254,719.64,-4.73487
1793.9136,719.74,-4.73509
1794.0018,719.84,-4.73602
1794.09,719.94,-4.73694
1794.1782,720.04,-4.73713
1794.2664,720.14,-4.73698
1794.3546,720.24,-4.73721
1794.4428,720.34,-4.73776
1794.531,720.44,-4.73802
1794.6192,720.54,-4.73789
1794.7074,720.64,-4.73804
1794.7956,720.74,-4.73889
1794.8832,720.84,-4.73987
1794.9714,720.94,-4.74029
1795.0596,721.04,-4.74017
1795.1478,721.14,-4.73976
1795.236,721.24,-4.73929
1795.3242,721.34,-4.73892
1795.4124,721.44,-4.7388
1795.5006,721.54,-4.739
1795.5888,721.64,-4.73951
1795.6764,721.74,-4.73995
1795.7646,721.84,-4.73995
1795.8528,721.94,-4.73985
1795.9416,722.04,-4.74033
1796.0292,722.14,-4.74135
1796.1174,722.24,-4.74208
1796.2056,722.34,-4.74209
1796.2932,722.44,-4.74199
1796.3814,722.54,-4.74236
1796.4696,722.64,-4.74289
1796.5578,722.74,-4.74305
1796.6454,722.84,-4.74295
1796.7336,722.94,-4.74313
1796.8218,723.04,-4.74366
1796.9106,723.14,-4.74401
1796.9988,723.24,-4.74391
1797.087,723.34,-4.74394
1797.1752,723.44,-4.74468
1797.2634,723.54,-4.74569
1797.3522,723.64,-4.7462
1797.4404,723.74,-4.74613
1797.5286,723.84,-4.74596
1797.6174,723.94,-4.74595
1797.7062,724.04,-4.746
1797.7944,724.14,-4.74601
1797.8832,724.24,-4.746
1797.9714,724.34,-4.74602
1798.0596,724.44,-4.74602
1798.1484,724.54,-4.74595
1798.2372,724.64,-4.74589
1798.3254,724.74,-4.74611
1798.4142,724.84,-4.74662
1798.5024,724.94,-4.74701
1798.5912,725.04,-4.747
1798.6794,725.14,-4.74696
1798.7682,725.24,-4.74733
1798.857,725.34,-4.74786
1798.9452,725.44,-4.748
1799.034,725.54,-4.74786
1799.1228,725.64,-4.74816
1799.2116,725.74,-4.74914
1799.3004,725.84,-4.75
1799.3892,725.94,-4.75013
1799.478,726.04,-4.74999
1799.5668,726.14,-4.75025
1799.6562,726.24,-4.75079
1799.745,726.34,-4.75111
1799.8332,726.44,-4.75108
1799.922,726.54,-4.75098
1800.0108,726.64,-4.75098
1800.0996,726.74,-4.751
1800.1884,726.84,-4.751
1800.2766,726.94,-4.75099
1800.3654,727.04,-4.75104
1800.4542,727.14,-4.75105
1800.543,727.24,-4.75091
1800.6318,727.34,-4.75079
1800.7206,727.44,-4.75115
1800.8088,727.54,-4.7521
1800.897,727.64,-4.75298
1800.9864,727.74,-4.75322
1801.0752,727.84,-4.75306
1801.1646,727.94,-4.75292
1801.2534,728.04,-4.75294
1801.3428,728.14,-4.75308
1801.4316,728.24,-4.75317
1801.521,728.34,-4.75288
1801.6098,728.44,-4.75223
1801.6986,728.54,-4.752
1801.7874,728.64,-4.75274
1801.8768,728.74,-4.7538
1801.9662,728.84,-4.75428
1802.055,728.94,-4.75416
1802.1438,729.04,-4.75385
1802.2326,729.14,-4.75375
1802.3214,729.24,-4.75417
1802.4108,729.34,-4.75512
1802.5002,729.44,-4.756
1802.5896,729.54,-4.7563
1802.6784,729.64,-4.7561
1802.7678,729.74,-4.75563
1802.8572,729.84,-4.75516
1802.9466,729.94,-4.75491
1803.036,730.04,-4.75492
1803.1248,730.14,-4.75503
1803.2142,730.24,-4.75508
1803.3036,730.34,-4.75499
1803.393,730.44,-4.7548
1803.4824,730.54,-4.7549
1803.5712,730.64,-4.75567
1803.6606,730.74,-4.75667
1803.7494,730.84,-4.75719
1803.8388,730.94,-4.75713
1803.9276,731.04,-4.75696
1804.017,731.14,-4.75695
1804.1064,731.24,-4.757
1804.1958,731.34,-4.75702
1804.2852,731.44,-4.757
1804.3746,731.54,-4.75699
1804.464,731.64,-4.75699
1804.5528,731.74,-4.75702
1804.6422,731.84,-4.75703
1804.7316,731.94,-4.75697
1804.821,732.04,-4.75689
1804.9104,732.14,-4.75704
1804.9998,732.24,-4.7575
1805.0892,732.34,-4.75796
1805.1786,732.44,-4.7581
1805.268,732.54,-4.75803
1805.3574,732.64,-4.75799
1805.4468,732.74,-4.75801
1805.5362,732.84,-4.75797
1805.6256,732.94,-4.7579
1805.715,733.04,-4.75805
1805.8044,733.14,-4.75853
1805.8938,733.24,-4.75898
1805.9832,733.34,-4.75911
1806.0732,733.44,-4.75903
1806.1626,733.54,-4.75897
1806.2526,733.64,-4.75899
1806.342,733.74,-4.75901
1806.4314,733.84,-4.759
1806.5208,733.94,-4.759
1806.6102,734.04,-4.759
1806.6996,734.14,-4.759
1806.7896,734.24,-4.75899
1806.879,734.34,-4.759
1806.9684,734.44,-4.75902
1807.0578,734.54,-4.75902
1807.1478,734.64,-4.75895
1807.2378,734.74,-4.7589
1807.3272,734.84,-4.7591
1807.4166,734.94,-4.7596
1807.506,735.04,-4.76002
1807.596,735.14,-4.76011
1807.6854,735.24,-4.76001
1807.7748,735.34,-4.75996
1807.8642,735.44,-4.75998
1807.9536,735.54,-4.76003
1808.043,735.64,-4.76005
1808.133,735.74,-4.75995
1808.223,735.84,-4.75983
1808.3124,735.94,-4.76007
1808.403,736.04,-4.76072
1808.493,736.14,-4.76102
1808.583,736.24,-4.76031
1808.673,736.34,-4.75924
1808.763,736.44,-4.75876
1808.853,736.54,-4.75889
1808.943,736.64,-4.75905
1809.033,736.74,-4.75904
1809.1236,736.84,-4.759
1809.2136,736.94,-4.75901
1809.303,737.04,-4.759
1809.393,737.14,-4.75891
1809.483,737.24,-4.75895
1809.573,737.34,-4.75934
1809.663,737.44,-4.75985
1809.7524,737.54,-4.7601
1809.8424,737.64,-4.76006
1809.9324,737.74,-4.75998
1810.0224,737.84,-4.75997
1810.1124,737.94,-4.76001
1810.2024,738.04,-4.76003
1810.2924,738.14,-4.76001
1810.3824,738.24,-4.75991
1810.473,738.34,-4.75993
1810.563,738.44,-4.76029
1810.6536,738.54,-4.7608
1810.7436,738.64,-4.76109
1810.8342,738.74,-4.76107
1810.9242,738.84,-4.76099
1811.0142,738.94,-4.76099
1811.1042,739.04,-4.761
1811.1948,739.14,-4.76095
1811.2848,739.24,-4.76098
1811.3748,739.34,-4.76118
1811.4648,739.44,-4.76118
1811.5548,739.54,-4.76046
1811.6448,739.64,-4.75938
1811.7348,739.74,-4.75898
1811.8254,739.84,-4.75949
1811.916,739.94,-4.76007
1812.0066,740.04,-4.76015
1812.0972,740.14,-4.76
1812.1872,740.24,-4.75996
1812.2778,740.34,-4.75999
1812.3684,740.44,-4.76001
1812.459,740.54,-4.76001
1812.5496,740.64,-4.75999
1812.6396,740.74,-4.75999
1812.7296,740.84,-4.76001
1812.8202,740.94,-4.76003
1812.9102,741.04,-4.75999
1813.0008,741.14,-4.7599
1813.0908,741.24,-4.75997
1813.1814,741.34,-4.76039
1813.272,741.44,-4.76089
1813.3626,741.54,-4.7611
1813.4526,741.64,-4.76105
1813.5432,741.74,-4.76098
1813.6338,741.84,-4.76098
1813.7244,741.94,-4.761
1813.815,742.04,-4.761
1813.9056,742.14,-4.761
1813.9962,742.24,-4.76101
1814.0868,742.34,-4.761
1814.1774,742.44,-4.76096
1814.268,742.54,-4.76096
1814.3586,742.64,-4.76112
1814.4486,742.74,-4.76118
1814.5392,742.84,-4.7607
1814.6298,742.94,-4.75971
1814.7204,743.04,-4.75885
1814.811,743.14,-4.7586
1814.9016,743.24,-4.75901
1814.9922,743.34,-4.75997
1815.0834,743.44,-4.76089
1815.174,743.54,-4.7612
1815.2652,743.64,-4.76107
1815.3564,743.74,-4.76095
1815.447,743.84,-4.76097
1815.5382,743.94,-4.76101
1815.6288,744.04,-4.76101
1815.72,744.14,-4.761
1815.8106,744.24,-4.761
1815.9018,744.34,-4.761
1815.9924,744.44,-4.76098
1816.0836,744.54,-4.76099
1816.1748,744.64,-4.76108
1816.2654,744.74,-4.76108
1816.356,744.84,-4.76075
1816.4472,744.94,-4.76023
1816.5378,745.04,-4.75992
1816.6284,745.14,-4.75992
1816.7196,745.24,-4.76001
1816.8102,745.34,-4.76003
1816.9014,745.44,-4.76
1816.9926,745.54,-4.75999
1817.0832,745.64,-4.76
1817.1744,745.74,-4.76001
1817.265,745.84,-4.76
1817.3562,745.94,-4.75999
1817.4468,746.04,-4.75999
1817.538,746.14,-4.76002
1817.6286,746.24,-4.76006
1817.7192,746.34,-4.75996
1817.8104,746.44,-4.7598
1817.9016,746.54,-4.76001
1817.9928,746.64,-4.76089
1818.084,746.74,-4.76187
1818.1752,746.84,-4.7623
1818.2658,746.94,-4.76215
1818.357,747.04,-4.76169
1818.4482,747.14,-4.7612
1818.5388,747.24,-4.76093
1818.6306,747.34,-4.76094
1818.7218,747.44,-4.76101
1818.813,747.54,-4.76102
1818.9042,747.64,-4.761
1818.9954,747.74,-4.76099
1819.0866,747.84,-4.761
1819.1778,747.94,-4.761
1819.269,748.04,-4.761
1819.3608,748.14,-4.761
1819.452,748.24,-4.761
1819.5438,748.34,-4.761
1819.635,748.44,-4.761
1819.7268,748.54,-4.761
1819.8186,748.64,-4.76101
1819.9098,748.74,-4.761
1820.0016,748.84,-4.76097
1820.0934,748.94,-4.76099
1820.1852,749.04,-4.76109
1820.2764,749.14,-4.76106
1820.3682,749.24,-4.76068
1820.46,749.34,-4.76017
1820.5518,749.44,-4.7599
1820.643,749.54,-4.75994
1820.7348,749.64,-4.76002
1820.826,749.74,-4.76003
1820.9178,749.84,-4.75999
1821.0096,749.94,-4.75998
1821.1014,750.04,-4.76
1821.1926,750.14,-4.76006
1821.2844,750.24,-4.76003
1821.3762,750.34,-4.75981
1821.468,750.44,-4.75983
1821.5598,750.54,-4.7606
1821.6516,750.64,-4.76168
1821.7434,750.74,-4.762
1821.8352,750.84,-4.76144
1821.927,750.94,-4.7609
1822.0188,751.04,-4.76087
1822.1106,751.14,-4.76101
1822.2018,751.24,-4.76104
1822.2936,751.34,-4.761
1822.3854,751.44,-4.76099
1822.4772,751.54,-4.761
1822.569,751.64,-4.761
1822.6608,751.74,-4.76099
1822.752,751.84,-4.76101
1822.8438,751.94,-4.76103
1822.935,752.04,-4.76096
1823.0268,752.14,-4.76089
1823.1186,752.24,-4.76107
1823.2104,752.34,-4.76158
1823.3022,752.44,-4.76201
1823.3934,752.54,-4.76205
1823.4852,752.64,-4.76199
1823.577,752.74,-4.76214
1823.6688,752.84,-4.76214
1823.7606,752.94,-4.76147
1823.8518,753.04,-4.76041
1823.9436,753.14,-4.75982
1824.0354,753.24,-4.75986
1824.1272,753.34,-4.76004
1824.219,753.44,-4.76005
1824.3108,753.54,-4.75999
1824.4026,753.64,-4.75998
1824.4944,753.74,-4.76
1824.5862,753.84,-4.76003
1824.678,753.94,-4.76002
1824.7704,754.04,-4.75992
1824.8622,754.14,-4.75992
1824.9546,754.24,-4.76024
1825.0464,754.34,-4.76076
1825.1382,754.44,-4.76108
1825.23,754.54,-4.76108
1825.3218,754.64,-4.76098
1825.4148,754.74,-4.76098
1825.5072,754.84,-4.761
1825.5996,754.94,-4.76101
1825.6914,755.04,-4.761
1825.7838,755.14,-4.761
1825.8762,755.24,-4.761
1825.9692,755.34,-4.761
1826.0622,755.44,-4.76099
1826.1546,755.54,-4.76102
1826.247,755.64,-4.76103
1826.3394,755.74,-4.76096
1826.4312,755.84,-4.76089
1826.5236,755.94,-4.76109
1826.616,756.04,-4.76159
1826.7084,756.14,-4.76202
1826.8008,756.24,-4.7621
1826.8932,756.34,-4.76201
1826.9862,756.44,-4.76197
1827.0786,756.54,-4.76199
1827.171,756.64,-4.76202
1827.2634,756.74,-4.76201
1827.3558,756.84,-4.76197
1827.4488,756.94,-4.76195
1827.5412,757.04,-4.76209
1827.6336,757.14,-4.76222
1827.726,757.24,-4.7618
1827.819,757.34,-4.76077
1827.9114,757.44,-4.75994
1828.0038,757.54,-4.75983
1828.0962,757.64,-4.76
1828.188,757.74,-4.75996
1828.2804,757.84,-4.75996
1828.3728,757.94,-4.76033
1828.4658,758.04,-4.76086
1828.5582,758.14,-4.76111
1828.65,758.24,-4.76106
1828.743,758.34,-4.76097
1828.8354,758.44,-4.76098
1828.9284,758.54,-4.76101
1829.0214,758.64,-4.76101
1829.1144,758.74,-4.761
1829.2074,758.84,-4.76099
1829.2998,758.94,-4.761
1829.3922,759.04,-4.76103
1829.4846,759.14,-4.76101
1829.5776,759.24,-4.76092
1829.6706,759.34,-4.76093
1829.763,759.44,-4.76129
1829.856,759.54,-4.76181
1829.9484,759.64,-4.7621
1830.0414,759.74,-4.76206
1830.1344,759.84,-4.76198
1830.2268,759.94,-4.76198
1830.3198,760.04,-4.762
1830.4128,760.14,-4.76201
1830.5058,760.24,-4.762
1830.5988,760.34,-4.762
1830.6924,760.44,-4.762
1830.786,760.54,-4.76199
1830.879,760.64,-4.76199
1830.9726,760.74,-4.76203
1831.0656,760.84,-4.76203
1831.1586,760.94,-4.7619
1831.2516,761.04,-4.76185
1831.3446,761.14,-4.76228
1831.437,761.24,-4.76293
1831.53,761.34,-4.76284
1831.623,761.44,-4.76181
1831.7166,761.54,-4.7609
1831.8102,761.64,-4.76079
1831.9032,761.74,-4.76101
1831.9962,761.84,-4.76106
1832.0892,761.94,-4.76101
1832.1822,762.04,-4.76098
1832.2752,762.14,-4.761
1832.3688,762.24,-4.761
1832.4624,762.34,-4.761
1832.5554,762.44,-4.76101
1832.649,762.54,-4.76102
1832.742,762.64,-4.76096
1832.8356,762.74,-4.7609
1832.9286,762.84,-4.7611
1833.0222,762.94,-4.7616
1833.1152,763.04,-4.76206
1833.2088,763.14,-4.7622
1833.3024,763.24,-4.76199
1833.3954,763.34,-4.7615
1833.4884,763.44,-4.76104
1833.5814,763.54,-4.7609
1833.675,763.64,-4.76098
1833.7686,763.74,-4.76103
1833.8622,763.84,-4.76101
1833.9558,763.94,-4.76098
1834.0494,764.04,-4.76098
1834.143,764.14,-4.76103
1834.2366,764.24,-4.76106
1834.3296,764.34,-4.76094
1834.4232,764.44,-4.76078
1834.5168,764.54,-4.76112
1834.6104,764.64,-4.76212
1834.7046,764.74,-4.76303
1834.7982,764.84,-4.76321
1834.8918,764.94,-4.76302
1834.9854,765.04,-4.76292
1835.079,765.14,-4.76297
1835.1726,765.24,-4.76309
1835.2662,765.34,-4.76308
1835.3598,765.44,-4.76273
1835.4534,765.54,-4.7622
1835.547,765.64,-4.76191
1835.6406,765.74,-4.76194
1835.7342,765.84,-4.76202
1835.8278,765.94,-4.76202
1835.9214,766.04,-4.762
1836.015,766.14,-4.76199
1836.1092,766.24,-4.762
1836.2028,766.34,-4.762
1836.2964,766.44,-4.762
1836.3906,766.54,-4.762
1836.4842,766.64,-4.762
1836.5778,766.74,-4.762
1836.672,766.84,-4.762
1836.7662,766.94,-4.76201
1836.861,767.04,-4.76201
1836.9546,767.14,-4.76198
1837.0488,767.24,-4.76196
1837.1424,767.34,-4.76207
1837.236,767.44,-4.76216
1837.3302,767.54,-4.76182
1837.4238,767.64,-4.76114
1837.518,767.74,-4.76108
1837.6116,767.84,-4.76205
1837.7052,767.94,-4.76304
1837.7994,768.04,-4.76323
1837.8936,768.14,-4.76301
1837.9878,768.24,-4.76294
1838.0814,768.34,-4.76299
1838.175,768.44,-4.76302
1838.2692,768.54,-4.763
1838.3634,768.64,-4.763
1838.4576,768.74,-4.763
1838.5518,768.84,-4.763
1838.646,768.94,-4.763
1838.7396,769.04,-4.763
1838.8338,769.14,-4.76301
1838.9274,769.24,-4.76299
1839.0216,769.34,-4.76297
1839.1158,769.44,-4.76301
1839.21,769.54,-4.7631
1839.3036,769.64,-4.76299
1839.3978,769.74,-4.76251
1839.4914,769.84,-4.76203
1839.5856,769.94,-4.76189
1839.6798,770.04,-4.76198
1839.774,770.14,-4.76203
1839.8688,770.24,-4.76201
1839.963,770.34,-4.76199
1840.0572,770.44,-4.762
1840.152,770.54,-4.762
1840.2462,770.64,-4.762
1840.3404,770.74,-4.762
1840.4346,770.84,-4.762
1840.5294,770.94,-4.762
1840.6242,771.04,-4.76201
1840.719,771.14,-4.76199
1840.8138,771.24,-4.76196
1840.908,771.34,-4.76201
1841.0022,771.44,-4.76216
1841.097,771.54,-4.76202
1841.1918,771.64,-4.76136
1841.2866,771.74,-4.76097
1841.3814,771.84,-4.76167
1841.4756,771.94,-4.76279
1841.5704,772.04,-4.76324
1841.6652,772.14,-4.76308
1841.76,772.24,-4.76294
1841.8548,772.34,-4.76297
1841.9496,772.44,-4.76302
1842.0444,772.54,-4.76301
1842.1392,772.64,-4.763
1842.2346,772.74,-4.76299
1842.3294,772.84,-4.763
1842.4236,772.94,-4.76301
1842.5184,773.04,-4.763
1842.6132,773.14,-4.76297
1842.708,773.24,-4.76301
1842.8028,773.34,-4.7631
1842.8976,773.44,-4.76301
1842.9924,773.54,-4.76254
1843.0872,773.64,-4.76204
1843.182,773.74,-4.76189
1843.2762,773.84,-4.76198
1843.3716,773.94,-4.76203
1843.4664,774.04,-4.76201
1843.5618,774.14,-4.76199
1843.6566,774.24,-4.76199
1843.7514,774.34,-4.76201
1843.8456,774.44,-4.76202
1843.9404,774.54,-4.76197
1844.0358,774.64,-4.76193
1844.1312,774.74,-4.76208
1844.226,774.84,-4.76227
1844.3214,774.94,-4.7618
1844.4162,775.04,-4.7606
1844.5116,775.14,-4.76001
1844.6058,775.24,-4.76088
1844.7006,775.34,-4.76201
1844.796,775.44,-4.76226
1844.8908,775.54,-4.76202
1844.9862,775.64,-4.76193
1845.0816,775.74,-4.76199
1845.177,775.84,-4.76202
1845.2724,775.94,-4.76201
1845.3678,776.04,-4.76199
1845.4626,776.14,-4.762
1845.5574,776.24,-4.762
1845.6528,776.34,-4.762
1845.7476,776.44,-4.762
1845.8436,776.54,-4.76199
1845.9384,776.64,-4.76201
1846.0338,776.74,-4.76203
1846.1286,776.84,-4.76197
1846.2234,776.94,-4.76189
1846.3188,777.04,-4.76207
1846.4148,777.14,-4.76259
1846.5102,777.24,-4.76303
1846.605,777.34,-4.7631
1846.6998,777.44,-4.763
1846.7952,777.54,-4.76297
1846.8906,777.64,-4.763
1846.9854,777.74,-4.76301
1847.0808,777.84,-4.763
1847.1762,777.94,-4.763
1847.2716,778.04,-4.763
1847.367,778.14,-4.763
1847.4624,778.24,-4.763
1847.5578,778.34,-4.763
1847.6532,778.44,-4.763
1847.7486,778.54,-4.76301
1847.844,778.64,-4.76302
1847.9394,778.74,-4.76297
1848.0354,778.84,-4.76294
1848.1308,778.94,-4.76307
1848.2268,779.04,-4.76324
1848.3222,779.14,-4.76281
1848.4176,779.24,-4.76168
1848.513,779.34,-4.76097
1848.609,779.44,-4.76137
1848.705,779.54,-4.76202
1848.801,779.64,-4.76215
1848.897,779.74,-4.762
1848.993,779.84,-4.76196
1849.089,779.94,-4.762
1849.1844,780.04,-4.76201
1849.2804,780.14,-4.762
1849.3764,780.24,-4.76199
1849.4718,780.34,-4.76199
1849.5678,780.44,-4.76202
1849.6638,780.54,-4.76202
1849.7598,780.64,-4.76194
1849.8558,780.74,-4.76191
1849.9512,780.84,-4.76222
1850.0472,780.94,-4.76277
1850.1432,781.04,-4.76309
1850.2392,781.14,-4.76307
1850.3352,781.24,-4.76298
1850.4306,781.34,-4.76298
1850.5266,781.44,-4.763
1850.6226,781.54,-4.76301
1850.7186,781.64,-4.763
1850.814,781.74,-4.763
1850.91,781.84,-4.763
1851.006,781.94,-4.76299
1851.102,782.04,-4.763
1851.198,782.14,-4.76304
1851.294,782.24,-4.76301
1851.39,782.34,-4.76286
1851.486,782.44,-4.76294
1851.582,782.54,-4.76357
1851.6774,782.64,-4.76403
1851.7734,782.74,-4.76341
1851.87,782.84,-4.76227
1851.966,782.94,-4.76176
1852.0626,783.04,-4.76191
1852.1586,783.14,-4.76206
1852.2552,783.24,-4.76203
1852.3512,783.34,-4.76198
1852.4472,783.44,-4.76199
1852.5432,783.54,-4.762
1852.6392,783.64,-4.762
1852.7358,783.74,-4.762
1852.8318,783.84,-4.762
1852.9284,783.94,-4.762
1853.0244,784.04,-4.76199
1853.121,784.14,-4.76201
1853.217,784.24,-4.76204
1853.3136,784.34,-4.76198
1853.4102,784.44,-4.76187
1853.5062,784.54,-4.76203
1853.6028,784.64,-4.76262
1853.6988,784.74,-4.763
1853.7954,784.84,-4.76263
1853.8914,784.94,-4.76204
1853.988,785.04,-4.76187
1854.0846,785.14,-4.76198
1854.1812,785.24,-4.76204
1854.2778,785.34,-4.76201
1854.3744,785.44,-4.76199
1854.471,785.54,-4.762
1854.5676,785.64,-4.762
1854.6642,785.74,-4.762
1854.7608,785.84,-4.762
1854.8574,785.94,-4.762
1854.954,786.04,-4.762
1855.0512,786.14,-4.762
1855.1484,786.24,-4.762
1855.245,786.34,-4.76199
1855.3416,786.44,-4.76201
1855.4382,786.54,-4.76203
1855.5342,786.64,-4.76196
1855.6314,786.74,-4.76189
1855.728,786.84,-4.76211
1855.8246,786.94,-4.76264
1855.9212,787.04,-4.76306
1856.0184,787.14,-4.76309
1856.115,787.24,-4.76299
1856.2116,787.34,-4.76298
1856.3088,787.44,-4.763
1856.4054,787.54,-4.76301
1856.502,787.64,-4.763
1856.5986,787.74,-4.763
1856.6952,787.84,-4.763
1856.7918,787.94,-4.763
1856.889,788.04,-4.763
1856.9856,788.14,-4.763
1857.0822,788.24,-4.763
1857.1788,788.34,-4.76301
1857.276,788.44,-4.763
1857.3726,788.54,-4.76298
1857.4698,788.64,-4.76298
1857.5664,788.74,-4.76307
1857.6624,788.84,-4.76308
1857.759,788.94,-4.76273
1857.8562,789.04,-4.76218
1857.9528,789.14,-4.7619
1858.05,789.24,-4.76195
1858.1472,789.34,-4.76203
1858.2444,789.44,-4.76202
1858.341,789.54,-4.76199
1858.4376,789.64,-4.762
1858.5342,789.74,-4.762
1858.6314,789.84,-4.762
1858.7286,789.94,-4.762
1858.8258,790.04,-4.76201
1858.923,790.14,-4.76199
1859.0202,790.24,-4.76198
1859.1168,790.34,-4.76201
1859.214,790.44,-4.76209
1859.3112,790.54,-4.76197
1859.4078,790.64,-4.76151
1859.5056,790.74,-4.76097
1859.6022,790.84,-4.7607
1859.6994,790.94,-4.761
1859.7966,791.04,-4.76198
1859.8932,791.14,-4.76296
1859.9904,791.24,-4.7632
1860.0876,791.34,-4.76302
1860.1848,791.44,-4.76295
1860.2826,791.54,-4.76299
1860.3804,791.64,-4.76301
1860.4782,791.74,-4.763
1860.576,791.84,-4.76301
1860.6732,791.94,-4.76301
1860.7704,792.04,-4.76296
1860.8676,792.14,-4.76296
1860.9654,792.24,-4.76314
1861.0638,792.34,-4.76316
1861.161,792.44,-4.76245
1861.2588,792.54,-4.76134
1861.356,792.64,-4.7608
1861.4538,792.74,-4.7609
1861.551,792.84,-4.76105
1861.6488,792.94,-4.76103
1861.746,793.04,-4.76099
1861.8438,793.14,-4.76099
1861.9416,793.24,-4.761
1862.0388,793.34,-4.761
1862.1366,793.44,-4.761
1862.2344,793.54,-4.761
1862.3316,793.64,-4.761
1862.4294,793.74,-4.761
1862.5272,793.84,-4.761
1862.625,793.94,-4.761
1862.7228,794.04,-4.761
1862.8206,794.14,-4.761
1862.9178,794.24,-4.761
1863.0156,794.34,-4.76098
1863.1128,794.44,-4.76101
1863.21,794.54,-4.76106
1863.3078,794.64,-4.76099
1863.405,794.74,-4.76079
1863.5028,794.84,-4.76102
1863.6006,794.94,-4.76201
1863.6984,795.04,-4.76299
1863.7956,795.14,-4.76321
1863.8934,795.24,-4.76301
1863.9912,795.34,-4.76294
1864.0896,795.44,-4.763
1864.1874,795.54,-4.76301
1864.2852,795.64,-4.763
1864.3836,795.74,-4.763
1864.482,795.84,-4.763
1864.5804,795.94,-4.76298
1864.6782,796.04,-4.76299
1864.7766,796.14,-4.76308
1864.8744,796.24,-4.76306
1864.9722,796.34,-4.76266
1865.0706,796.44,-4.76211
1865.169,796.54,-4.76189
1865.2668,796.64,-4.76197
1865.3652,796.74,-4.76203
1865.463,796.84,-4.76201
1865.5614,796.94,-4.76199
1865.6592,797.04,-4.762
1865.7576,797.14,-4.762
1865.856,797.24,-4.762
1865.9544,797.34,-4.762
1866.0528,797.44,-4.762
1866.1512,797.54,-4.762
1866.249,797.64,-4.76199
1866.3474,797.74,-4.76201
1866.4464,797.84,-4.76203
1866.5448,797.94,-4.76195
1866.6426,798.04,-4.7619
1866.7416,798.14,-4.76217
1866.84,798.24,-4.76273
1866.9384,798.34,-4.76309
1867.0368,798.44,-4.76307
1867.1346,798.54,-4.76298
1867.233,798.64,-4.76298
1867.3314,798.74,-4.76301
1867.4304,798.84,-4.76301
1867.5288,798.94,-4.763
1867.6278,799.04,-4.763
1867.7256,799.14,-4.763
1867.824,799.24,-4.763
1867.9224,799.34,-4.763
1868.0214,799.44,-4.76301
1868.1204,799.54,-4.76299
1868.2188,799.64,-4.76294
1868.3178,799.74,-4.76303
1868.4162,799.84,-4.76321
1868.5152,799.94,-4.7629
1868.6136,800.04,-4.76187
1868.712,800.14,-4.76092
1868.811,800.24,-4.76071
1868.91,800.34,-4.76105
1869.0084,800.44,-4.7616
1869.1074,800.54,-4.76202
1869.2058,800.64,-4.76208
1869.3042,800.74,-4.762
1869.4026,800.84,-4.76198
1869.501,800.94,-4.762
1869.6,801.04,-4.76201
1869.6984,801.14,-4.762
1869.7974,801.24,-4.762
1869.8964,801.34,-4.762
1869.9954,801.44,-4.762
1870.0944,801.54,-4.762
1870.1934,801.64,-4.762
1870.2918,801.74,-4.762
1870.3908,801.84,-4.762
1870.4898,801.94,-4.762
1870.5882,802.04,-4.76199
1870.6866,802.14,-4.762
1870.785,802.24,-4.76202
1870.8834,802.34,-4.76201
1870.9824,802.44,-4.76191
1871.0814,802.54,-4.76195
1871.1804,802.64,-4.76239
1871.28,802.74,-4.76293
1871.379,802.84,-4.76311
1871.4774,802.94,-4.76302
1871.5764,803.04,-4.76297
1871.676,803.14,-4.76299
1871.775,803.24,-4.76301
1871.874,803.34,-4.763
1871.973,803.44,-4.76299
1872.072,803.54,-4.763
1872.171,803.64,-4.76301
1872.2706,803.74,-4.76301
1872.3696,803.84,-4.76295
1872.4686,803.94,-4.76295
1872.567,804.04,-4.76317
1872.666,804.14,-4.76318
1872.7644,804.24,-4.76234
1872.8634,804.34,-4.76121
1872.963,804.44,-4.76108
1873.062,804.54,-4.76177
1873.1616,804.64,-4.76216
1873.2606,804.74,-4.76206
1873.3596,804.84,-4.76196
1873.4586,804.94,-4.76198
1873.5582,805.04,-4.76201
1873.6572,805.14,-4.76201
1873.7562,805.24,-4.762
1873.8552,805.34,-4.762
1873.9542,805.44,-4.76201
1874.0532,805.54,-4.76201
1874.1528,805.64,-4.76198
1874.2518,805.74,-4.76197
1874.3508,805.84,-4.76206
1874.4504,805.94,-4.7621
1874.55,806.04,-4.76178
1874.6496,806.14,-4.76121
1874.7492,806.24,-4.76092
1874.8488,806.34,-4.76097
1874.9484,806.44,-4.76097
1875.048,806.54,-4.76092
1875.1476,806.64,-4.7612
1875.2478,806.74,-4.76177
1875.3474,806.84,-4.7621
1875.4476,806.94,-4.76206
1875.5472,807.04,-4.76197
1875.6474,807.14,-4.76198
1875.747,807.24,-4.76201
1875.8466,807.34,-4.762
1875.9468,807.44,-4.762
1876.047,807.54,-4.762
1876.1466,807.64,-4.762
1876.2462,807.74,-4.762
1876.3458,807.84,-4.762
1876.446,807.94,-4.76201
1876.5462,808.04,-4.76199
1876.6458,808.14,-4.76198
1876.746,808.24,-4.76204
1876.8456,808.34,-4.76209
1876.9452,808.44,-4.76183
1877.0448,808.54,-4.7613
1877.1444,808.64,-4.76081
1877.244,808.74,-4.76074
1877.3436,808.84,-4.76139
1877.4432,808.94,-4.76252
1877.5434,809.04,-4.76317
1877.6436,809.14,-4.76312
1877.7432,809.24,-4.76295
1877.8428,809.34,-4.76297
1877.9424,809.44,-4.76301
1878.0426,809.54,-4.76301
1878.1422,809.64,-4.763
1878.2418,809.74,-4.763
1878.342,809.84,-4.763
1878.4422,809.94,-4.763
1878.5418,810.04,-4.763
1878.642,810.14,-4.76301
1878.7422,810.24,-4.76299
1878.8424,810.34,-4.76297
1878.9426,810.44,-4.76305
1879.0428,810.54,-4.7631
1879.1424,810.64,-4.76282
1879.242,810.74,-4.76226
1879.3428,810.84,-4.76191
1879.4436,810.94,-4.76194
1879.5438,811.04,-4.76202
1879.6446,811.14,-4.76202
1879.7448,811.24,-4.76199
1879.845,811.34,-4.762
1879.9452,811.44,-4.762
1880.0454,811.54,-4.762
1880.1456,811.64,-4.762
1880.2458,811.74,-4.762
1880.3466,811.84,-4.762
1880.4462,811.94,-4.762
1880.5464,812.04,-4.76201
1880.6466,812.14,-4.76201
1880.7468,812.24,-4.76198
1880.8476,812.34,-4.76196
1880.9478,812.44,-4.76208
1881.048,812.54,-4.76215
1881.1482,812.64,-4.76169
1881.2484,812.74,-4.76102
1881.3492,812.84,-4.76133
1881.45,812.94,-4.76251
1881.5502,813.04,-4.76322
1881.6504,813.14,-4.76312
1881.7506,813.24,-4.76294
1881.8514,813.34,-4.76297
1881.9516,813.44,-4.76302
1882.0512,813.54,-4.76301
1882.1514,813.64,-4.76299
1882.2522,813.74,-4.763
1882.3524,813.84,-4.76301
1882.4526,813.94,-4.76301
1882.5552,814.04,-4.76298
1882.6584,814.14,-4.76298
1882.7586,814.24,-4.76306
1882.8564,814.34,-4.76309
1882.9554,814.44,-4.76275
1883.0568,814.54,-4.76218
1883.1576,814.64,-4.7619
1883.2578,814.74,-4.76196
1883.3592,814.84,-4.76203
1883.4606,814.94,-4.76201
1883.5578,815.04,-4.76199
1883.658,815.14,-4.762
1883.7732,815.24,-4.762
1883.9034,815.34,-4.762
