Time,Temperature,Mass
[s],[K],[mg]
1200.1002,306.872,-2.00E-03
1244.0322,306.972,-2.44E-03
1257.456,307.072,-2.88E-03
1264.5324,307.172,-3.95E-03
1270.032,307.272,-2.97E-03
1274.8104,307.372,-3.10E-03
1278.6426,307.472,-2.64E-03
1282.116,307.572,-3.90E-03
1284.9288,307.672,-5.02E-03
1287.7638,307.772,-4.65E-03
1290.1602,307.872,-5.97E-03
1292.4636,307.972,-6.27E-03
1294.674,308.072,-6.11E-03
1296.6486,308.172,-8.00E-03
1298.5176,308.272,-7.99E-03
1300.3014,308.372,-8.00E-03
1302.0072,308.472,-8.13E-03
1303.6488,308.572,-8.09E-03
1305.1368,308.672,-6.96E-03
1306.6308,308.772,-7.54E-03
1308.0822,308.872,-8.01E-03
1309.4196,308.972,-8.25E-03
1310.73,309.072,-9.83E-03
1312.0332,309.172,-8.68E-03
1313.2596,309.272,-9.12E-03
1314.4542,309.372,-9.14E-03
1315.6458,309.472,-8.75E-03
1316.772,309.572,-1.04E-02
1317.8802,309.672,-1.10E-02
1318.9164,309.772,-9.99E-03
1319.928,309.872,-1.07E-02
1320.942,309.972,-1.12E-02
1321.9644,310.072,-1.03E-02
1322.9346,310.172,-9.93E-03
1323.8658,310.272,-1.18E-02
1324.785,310.372,-1.23E-02
1325.694,310.472,-1.20E-02
1326.5736,310.572,-1.28E-02
1327.434,310.672,-1.24E-02
1328.292,310.772,-1.20E-02
1329.132,310.872,-1.11E-02
1329.9252,310.972,-1.22E-02
1330.7082,311.072,-1.20E-02
1331.4996,311.172,-1.30E-02
1332.303,311.272,-1.30E-02
1333.074,311.372,-1.41E-02
1333.8276,311.472,-1.44E-02
1334.5656,311.572,-1.51E-02
1335.3072,311.672,-1.50E-02
1336.0284,311.772,-1.54E-02
1336.7334,311.872,-1.34E-02
1337.4216,311.972,-1.43E-02
1338.1086,312.072,-1.49E-02
1338.7848,312.172,-1.42E-02
1339.443,312.272,-1.56E-02
1340.0982,312.372,-1.60E-02
1340.7444,312.472,-1.42E-02
1341.3786,312.572,-1.52E-02
1342.0224,312.672,-1.58E-02
1342.6446,312.772,-1.60E-02
1343.2668,312.872,-1.57E-02
1343.88,312.972,-1.41E-02
1344.495,313.072,-1.61E-02
1345.0998,313.172,-1.50E-02
1345.683,313.272,-1.59E-02
1346.268,313.372,-1.32E-02
1346.8338,313.472,-1.57E-02
1347.3948,313.572,-1.74E-02
1347.9618,313.672,-1.63E-02
1348.5126,313.772,-1.60E-02
1349.0826,313.872,-1.69E-02
1349.6268,313.972,-1.55E-02
1350.1686,314.072,-1.54E-02
1350.7014,314.172,-1.80E-02
1351.2354,314.272,-1.54E-02
1351.7538,314.372,-1.53E-02
1352.2716,314.472,-1.69E-02
1352.7846,314.572,-1.61E-02
1353.2868,314.672,-1.50E-02
1353.7986,314.772,-1.65E-02
1354.3002,314.872,-1.70E-02
1354.8006,314.972,-1.61E-02
1355.2956,315.072,-1.70E-02
1355.7864,315.172,-1.68E-02
1356.2664,315.272,-1.70E-02
1356.7464,315.372,-1.72E-02
1357.2318,315.472,-1.64E-02
1357.7076,315.572,-1.60E-02
1358.1786,315.672,-1.61E-02
1358.6412,315.772,-1.87E-02
1359.0942,315.872,-1.80E-02
1359.549,315.972,-1.77E-02
1360.0056,316.072,-1.81E-02
1360.461,316.172,-1.71E-02
1360.9152,316.272,-1.70E-02
1361.3682,316.372,-1.64E-02
1361.8086,316.472,-1.88E-02
1362.2484,316.572,-1.86E-02
1362.6738,316.672,-1.80E-02
1363.104,316.772,-1.80E-02
1363.53,316.872,-1.88E-02
1363.9578,316.972,-1.86E-02
1364.3694,317.072,-1.85E-02
1364.7822,317.172,-1.76E-02
1365.2022,317.272,-1.82E-02
1365.615,317.372,-1.61E-02
1366.029,317.472,-1.78E-02
1366.4268,317.572,-1.72E-02
1366.8366,317.672,-1.76E-02
1367.2494,317.772,-1.71E-02
1367.6436,317.872,-1.75E-02
1368.0384,317.972,-1.71E-02
1368.4314,318.072,-1.76E-02
1368.8304,318.172,-1.72E-02
1369.224,318.272,-1.77E-02
1369.6146,318.372,-1.85E-02
1370.0046,318.472,-1.84E-02
1370.3904,318.572,-1.92E-02
1370.7708,318.672,-1.87E-02
1371.1476,318.772,-2.03E-02
1371.5226,318.872,-1.89E-02
1371.8958,318.972,-2.00E-02
1372.269,319.072,-1.81E-02
1372.6434,319.172,-1.81E-02
1373.0136,319.272,-1.89E-02
1373.3862,319.372,-1.89E-02
1373.7552,319.472,-2.06E-02
1374.1284,319.572,-1.98E-02
1374.4872,319.672,-1.99E-02
1374.8442,319.772,-1.99E-02
1375.1988,319.872,-1.89E-02
1375.5558,319.972,-1.92E-02
1375.9092,320.072,-1.80E-02
1376.2596,320.172,-1.91E-02
1376.604,320.272,-2.06E-02
1376.9556,320.372,-1.94E-02
1377.303,320.472,-2.10E-02
1377.6504,320.572,-2.09E-02
1377.9948,320.672,-1.97E-02
1378.3356,320.772,-2.11E-02
1378.6746,320.872,-1.90E-02
1379.0166,320.972,-2.10E-02
1379.3532,321.072,-2.08E-02
1379.6886,321.172,-2.19E-02
1380.018,321.272,-2.12E-02
1380.3486,321.372,-1.95E-02
1380.6768,321.472,-2.11E-02
1381.0062,321.572,-2.09E-02
1381.3326,321.672,-2.21E-02
1381.6554,321.772,-2.31E-02
1381.974,321.872,-2.04E-02
1382.292,321.972,-2.10E-02
1382.6178,322.072,-2.13E-02
1382.9394,322.172,-2.29E-02
1383.2592,322.272,-2.10E-02
1383.5724,322.372,-2.08E-02
1383.8886,322.472,-2.00E-02
1384.2048,322.572,-2.21E-02
1384.5168,322.672,-2.29E-02
1384.836,322.772,-2.18E-02
1385.1486,322.872,-2.03E-02
1385.46,322.972,-2.12E-02
1385.7678,323.072,-2.17E-02
1386.0774,323.172,-2.29E-02
1386.3822,323.272,-2.09E-02
1386.6846,323.372,-1.99E-02
1386.9906,323.472,-2.23E-02
1387.2906,323.572,-2.20E-02
1387.5888,323.672,-2.14E-02
1387.8852,323.772,-2.10E-02
1388.1822,323.872,-2.23E-02
1388.4786,323.972,-2.20E-02
1388.775,324.072,-2.17E-02
1389.0744,324.172,-2.21E-02
1389.366,324.272,-2.24E-02
1389.66,324.372,-2.19E-02
1389.9546,324.472,-2.15E-02
1390.2468,324.572,-2.14E-02
1390.5384,324.672,-2.32E-02
1390.8276,324.772,-2.32E-02
1391.1138,324.872,-2.11E-02
1391.4012,324.972,-2.20E-02
1391.6856,325.072,-2.29E-02
1391.973,325.172,-2.23E-02
1392.2574,325.272,-2.20E-02
1392.54,325.372,-2.39E-02
1392.822,325.472,-2.20E-02
1393.1022,325.572,-2.10E-02
1393.3818,325.672,-2.35E-02
1393.6602,325.772,-2.20E-02
1393.9362,325.872,-2.13E-02
1394.2098,325.972,-2.24E-02
1394.4822,326.072,-2.40E-02
1394.7612,326.172,-2.20E-02
1395.0348,326.272,-2.30E-02
1395.3078,326.372,-2.40E-02
1395.5796,326.472,-2.32E-02
1395.8544,326.572,-2.17E-02
1396.1274,326.672,-2.42E-02
1396.4016,326.772,-2.27E-02
1396.6722,326.872,-2.39E-02
1396.9434,326.972,-2.18E-02
1397.2098,327.072,-2.13E-02
1397.4738,327.172,-2.29E-02
1397.7402,327.272,-2.21E-02
1398.0036,327.372,-2.19E-02
1398.2688,327.472,-2.28E-02
1398.5286,327.572,-2.21E-02
1398.7854,327.672,-2.21E-02
1399.0452,327.772,-2.25E-02
1399.3056,327.872,-2.20E-02
1399.5654,327.972,-2.13E-02
1399.8252,328.072,-2.13E-02
1400.0826,328.172,-2.10E-02
1400.3418,328.272,-2.30E-02
1400.5998,328.372,-2.20E-02
1400.8554,328.472,-2.10E-02
1401.1116,328.572,-2.30E-02
1401.3714,328.672,-2.15E-02
1401.6252,328.772,-2.25E-02
1401.879,328.872,-2.21E-02
1402.1328,328.972,-2.12E-02
1402.3836,329.072,-2.27E-02
1402.6344,329.172,-2.29E-02
1402.8822,329.272,-2.10E-02
1403.1294,329.372,-2.30E-02
1403.3784,329.472,-2.23E-02
1403.6274,329.572,-2.23E-02
1403.8722,329.672,-2.30E-02
1404.1182,329.772,-2.21E-02
1404.363,329.872,-2.36E-02
1404.6072,329.972,-2.24E-02
1404.8532,330.072,-2.21E-02
1405.1004,330.172,-2.30E-02
1405.3452,330.272,-2.23E-02
1405.59,330.372,-2.37E-02
1405.8342,330.472,-2.31E-02
1406.0748,330.572,-2.11E-02
1406.3142,330.672,-2.31E-02
1406.5566,330.772,-2.33E-02
1406.7978,330.872,-2.29E-02
1407.0384,330.972,-2.34E-02
1407.276,331.072,-2.31E-02
1407.5106,331.172,-2.29E-02
1407.7464,331.272,-2.12E-02
1407.9828,331.372,-2.31E-02
1408.2192,331.472,-2.44E-02
1408.4556,331.572,-2.35E-02
1408.6884,331.672,-2.30E-02
1408.9242,331.772,-2.32E-02
1409.1558,331.872,-2.46E-02
1409.3892,331.972,-2.34E-02
1409.6214,332.072,-2.27E-02
1409.8536,332.172,-2.35E-02
1410.087,332.272,-2.40E-02
1410.3198,332.372,-2.38E-02
1410.549,332.472,-2.23E-02
1410.7782,332.572,-2.38E-02
1411.0068,332.672,-2.35E-02
1411.2336,332.772,-2.32E-02
1411.461,332.872,-2.47E-02
1411.6884,332.972,-2.41E-02
1411.917,333.072,-2.40E-02
1412.1414,333.172,-2.40E-02
1412.3664,333.272,-2.40E-02
1412.5926,333.372,-2.40E-02
1412.8158,333.472,-2.40E-02
1413.0402,333.572,-2.40E-02
1413.2616,333.672,-2.40E-02
1413.4848,333.772,-2.40E-02
1413.7068,333.872,-2.40E-02
1413.9312,333.972,-2.40E-02
1414.1532,334.072,-2.40E-02
1414.3764,334.172,-2.39E-02
1414.5972,334.272,-2.45E-02
1414.8192,334.372,-2.52E-02
1415.04,334.472,-2.43E-02
1415.2596,334.572,-2.39E-02
1415.4768,334.672,-2.49E-02
1415.694,334.772,-2.50E-02
1415.9136,334.872,-2.40E-02
1416.1302,334.972,-2.41E-02
1416.3486,335.072,-2.51E-02
1416.5646,335.172,-2.47E-02
1416.7794,335.272,-2.38E-02
1416.9954,335.372,-2.45E-02
1417.2084,335.472,-2.52E-02
1417.4232,335.572,-2.44E-02
1417.6344,335.672,-2.38E-02
1417.8462,335.772,-2.48E-02
1418.061,335.872,-2.51E-02
1418.2722,335.972,-2.41E-02
1418.4852,336.072,-2.39E-02
1418.6976,336.172,-2.60E-02
1418.907,336.272,-2.60E-02
1419.117,336.372,-2.49E-02
1419.3294,336.472,-2.51E-02
1419.5376,336.572,-2.61E-02
1419.747,336.672,-2.58E-02
1419.957,336.772,-2.50E-02
1420.1658,336.872,-2.48E-02
1420.3758,336.972,-2.37E-02
1420.5828,337.072,-2.50E-02
1420.7916,337.172,-2.52E-02
1420.9992,337.272,-2.43E-02
1421.2062,337.372,-2.49E-02
1421.4114,337.472,-2.63E-02
1421.6172,337.572,-2.60E-02
1421.8218,337.672,-2.47E-02
1422.0282,337.772,-2.53E-02
1422.2334,337.872,-2.34E-02
1422.4398,337.972,-2.44E-02
1422.645,338.072,-2.51E-02
1422.8496,338.172,-2.57E-02
1423.0536,338.272,-2.62E-02
1423.257,338.372,-2.51E-02
1423.4628,338.472,-2.51E-02
1423.6644,338.572,-2.40E-02
1423.8678,338.672,-2.57E-02
1424.0706,338.772,-2.62E-02
1424.271,338.872,-2.41E-02
1424.4732,338.972,-2.49E-02
1424.6724,339.072,-2.49E-02
1424.8728,339.172,-2.67E-02
1425.0708,339.272,-2.72E-02
1425.2676,339.372,-2.52E-02
1425.4662,339.472,-2.51E-02
1425.6636,339.572,-2.40E-02
1425.861,339.672,-2.56E-02
1426.0572,339.772,-2.63E-02
1426.254,339.872,-2.42E-02
1426.4502,339.972,-2.54E-02
1426.647,340.072,-2.62E-02
1426.8444,340.172,-2.52E-02
1427.0388,340.272,-2.48E-02
1427.2326,340.372,-2.57E-02
1427.427,340.472,-2.62E-02
1427.6196,340.572,-2.52E-02
1427.8152,340.672,-2.60E-02
1428.0108,340.772,-2.74E-02
1428.2058,340.872,-2.59E-02
1428.4008,340.972,-2.48E-02
1428.594,341.072,-2.50E-02
1428.7878,341.172,-2.54E-02
1428.9804,341.272,-2.61E-02
1429.173,341.372,-2.59E-02
1429.365,341.472,-2.61E-02
1429.557,341.572,-2.56E-02
1429.7502,341.672,-2.53E-02
1429.9416,341.772,-2.73E-02
1430.1348,341.872,-2.67E-02
1430.3292,341.972,-2.49E-02
1430.5182,342.072,-2.50E-02
1430.7066,342.172,-2.50E-02
1430.895,342.272,-2.60E-02
1431.0846,342.372,-2.60E-02
1431.2742,342.472,-2.60E-02
1431.462,342.572,-2.60E-02
1431.6516,342.672,-2.60E-02
1431.8394,342.772,-2.60E-02
1432.0266,342.872,-2.60E-02
1432.215,342.972,-2.61E-02
1432.4034,343.072,-2.55E-02
1432.5924,343.172,-2.47E-02
1432.7778,343.272,-2.59E-02
1432.9632,343.372,-2.68E-02
1433.1504,343.472,-2.61E-02
1433.3376,343.572,-2.70E-02
1433.5242,343.672,-2.59E-02
1433.7102,343.772,-2.61E-02
1433.895,343.872,-2.80E-02
1434.0804,343.972,-2.62E-02
1434.2658,344.072,-2.58E-02
1434.4512,344.172,-2.69E-02
1434.6384,344.272,-2.62E-02
1434.8238,344.372,-2.65E-02
1435.008,344.472,-2.72E-02
1435.191,344.572,-2.65E-02
1435.3728,344.672,-2.59E-02
1435.557,344.772,-2.59E-02
1435.7412,344.872,-2.63E-02
1435.9254,344.972,-2.82E-02
1436.1078,345.072,-2.79E-02
1436.289,345.172,-2.60E-02
1436.4702,345.272,-2.68E-02
1436.6538,345.372,-2.71E-02
1436.8338,345.472,-2.70E-02
1437.0144,345.572,-2.70E-02
1437.1962,345.672,-2.70E-02
1437.3762,345.772,-2.70E-02
1437.5568,345.872,-2.70E-02
1437.7362,345.972,-2.70E-02
1437.9162,346.072,-2.71E-02
1438.0956,346.172,-2.80E-02
1438.2738,346.272,-2.80E-02
1438.452,346.372,-2.81E-02
1438.6308,346.472,-2.74E-02
1438.8102,346.572,-2.68E-02
1438.9896,346.672,-2.75E-02
1439.1678,346.772,-2.78E-02
1439.3442,346.872,-2.68E-02
1439.5212,346.972,-2.72E-02
1439.6988,347.072,-2.90E-02
1439.8752,347.172,-2.82E-02
1440.0522,347.272,-2.78E-02
1440.2286,347.372,-2.89E-02
1440.4056,347.472,-2.81E-02
1440.5826,347.572,-2.67E-02
1440.7584,347.672,-2.74E-02
1440.9324,347.772,-2.80E-02
1441.1076,347.872,-2.70E-02
1441.2822,347.972,-2.69E-02
1441.4538,348.072,-2.87E-02
1441.6272,348.172,-2.85E-02
1441.8012,348.272,-2.78E-02
1441.9752,348.372,-2.84E-02
1442.1504,348.472,-2.92E-02
1442.3226,348.572,-2.89E-02
1442.4948,348.672,-2.80E-02
1442.667,348.772,-2.88E-02
1442.8398,348.872,-2.93E-02
1443.012,348.972,-2.76E-02
1443.1842,349.072,-2.76E-02
1443.3558,349.172,-2.93E-02
1443.5286,349.272,-2.89E-02
1443.7008,349.372,-2.80E-02
1443.8736,349.472,-2.79E-02
1444.047,349.572,-2.89E-02
1444.2186,349.672,-2.85E-02
1444.3896,349.772,-2.77E-02
1444.5606,349.872,-2.86E-02
1444.7304,349.972,-3.00E-02
1444.9008,350.072,-2.90E-02
1445.0718,350.172,-2.89E-02
1445.2422,350.272,-2.92E-02
1445.412,350.372,-2.79E-02
1445.5818,350.472,-2.66E-02
1445.751,350.572,-2.75E-02
1445.9202,350.672,-2.91E-02
1446.0894,350.772,-2.90E-02
1446.258,350.872,-2.88E-02
1446.426,350.972,-2.99E-02
1446.5946,351.072,-2.92E-02
1446.7632,351.172,-2.76E-02
1446.9324,351.272,-2.83E-02
1447.1004,351.372,-3.00E-02
1447.2684,351.472,-2.92E-02
1447.4364,351.572,-2.88E-02
1447.6038,351.672,-2.92E-02
1447.7712,351.772,-2.84E-02
1447.9392,351.872,-2.68E-02
1448.1066,351.972,-2.71E-02
1448.2722,352.072,-2.88E-02
1448.4384,352.172,-2.92E-02
1448.6046,352.272,-2.88E-02
1448.7702,352.372,-2.95E-02
1448.9352,352.472,-2.98E-02
1449.0996,352.572,-2.80E-02
1449.2634,352.672,-2.77E-02
1449.4272,352.772,-2.95E-02
1449.5922,352.872,-2.97E-02
1449.7566,352.972,-2.88E-02
1449.921,353.072,-2.90E-02
1450.086,353.172,-2.90E-02
1450.2498,353.272,-2.82E-02
1450.413,353.372,-2.79E-02
1450.5756,353.472,-2.80E-02
1450.7394,353.572,-2.80E-02
1450.9038,353.672,-2.80E-02
1451.0664,353.772,-2.80E-02
1451.2302,353.872,-2.79E-02
1451.394,353.972,-2.84E-02
1451.5566,354.072,-2.91E-02
1451.7192,354.172,-2.89E-02
1451.883,354.272,-2.89E-02
1452.0462,354.372,-3.07E-02
1452.2076,354.472,-3.01E-02
1452.3696,354.572,-2.87E-02
1452.5316,354.672,-2.91E-02
1452.6918,354.772,-2.90E-02
1452.8538,354.872,-2.82E-02
1453.0152,354.972,-2.79E-02
1453.176,355.072,-2.79E-02
1453.3368,355.172,-2.81E-02
1453.4964,355.272,-2.90E-02
1453.6578,355.372,-2.91E-02
1453.818,355.472,-2.88E-02
1453.9782,355.572,-2.95E-02
1454.139,355.672,-2.98E-02
1454.2992,355.772,-2.80E-02
1454.4576,355.872,-2.77E-02
1454.6154,355.972,-2.92E-02
1454.775,356.072,-3.03E-02
1454.9334,356.172,-2.98E-02
1455.0924,356.272,-2.90E-02
1455.2514,356.372,-2.89E-02
1455.4086,356.472,-2.91E-02
1455.567,356.572,-2.87E-02
1455.726,356.672,-2.79E-02
1455.8832,356.772,-2.79E-02
1456.041,356.872,-2.96E-02
1456.1976,356.972,-2.97E-02
1456.3548,357.072,-2.88E-02
1456.512,357.172,-2.90E-02
1456.668,357.272,-2.98E-02
1456.824,357.372,-3.03E-02
1456.9806,357.472,-2.91E-02
1457.1378,357.572,-2.80E-02
1457.2944,357.672,-2.90E-02
1457.451,357.772,-2.91E-02
1457.607,357.872,-2.89E-02
1457.7624,357.972,-2.93E-02
1457.9178,358.072,-3.00E-02
1458.0738,358.172,-3.00E-02
1458.2292,358.272,-3.03E-02
1458.384,358.372,-2.90E-02
1458.5388,358.472,-2.81E-02
1458.6936,358.572,-2.99E-02
1458.8484,358.672,-3.01E-02
1459.0026,358.772,-2.99E-02
1459.1574,358.872,-3.00E-02
1459.3116,358.972,-3.00E-02
1459.4652,359.072,-3.00E-02
1459.6206,359.172,-2.99E-02
1459.7748,359.272,-3.04E-02
1459.9284,359.372,-3.10E-02
1460.082,359.472,-3.01E-02
1460.235,359.572,-2.98E-02
1460.3874,359.672,-3.04E-02
1460.5398,359.772,-3.11E-02
1460.6916,359.872,-3.10E-02
1460.8434,359.972,-3.02E-02
1460.9958,360.072,-3.03E-02
1461.1482,360.172,-3.12E-02
1461.3012,360.272,-3.10E-02
1461.4542,360.372,-2.92E-02
1461.606,360.472,-2.99E-02
1461.7578,360.572,-3.13E-02
1461.909,360.672,-3.10E-02
1462.0614,360.772,-3.10E-02
1462.2102,360.872,-3.10E-02
1462.359,360.972,-3.10E-02
1462.5096,361.072,-3.10E-02
1462.659,361.172,-3.08E-02
1462.809,361.272,-3.23E-02
1462.959,361.372,-3.27E-02
1463.109,361.472,-3.09E-02
1463.2584,361.572,-3.09E-02
1463.4078,361.672,-3.09E-02
1463.5566,361.772,-3.13E-02
1463.7054,361.872,-3.20E-02
1463.8548,361.972,-3.13E-02
1464.003,362.072,-3.08E-02
1464.1512,362.172,-3.12E-02
1464.3,362.272,-3.20E-02
1464.4494,362.372,-3.23E-02
1464.5988,362.472,-3.09E-02
1464.7476,362.572,-3.00E-02
1464.8976,362.672,-3.10E-02
1465.0464,362.772,-3.11E-02
1465.194,362.872,-3.10E-02
1465.3422,362.972,-3.09E-02
1465.4904,363.072,-3.09E-02
1465.6386,363.172,-3.24E-02
1465.7862,363.272,-3.32E-02
1465.9338,363.372,-3.29E-02
1466.0802,363.472,-3.30E-02
1466.2272,363.572,-3.32E-02
1466.3748,363.672,-3.23E-02
1466.5218,363.772,-3.09E-02
1466.6694,363.872,-3.09E-02
1466.8164,363.972,-3.11E-02
1466.9628,364.072,-3.08E-02
1467.1092,364.172,-3.11E-02
1467.2538,364.272,-3.27E-02
1467.399,364.372,-3.26E-02
1467.5448,364.472,-3.21E-02
1467.6906,364.572,-3.30E-02
1467.837,364.672,-3.30E-02
1467.9822,364.772,-3.31E-02
1468.1274,364.872,-3.28E-02
1468.2732,364.972,-3.12E-02
1468.4184,365.072,-3.07E-02
1468.563,365.172,-3.13E-02
1468.7082,365.272,-3.20E-02
1468.8522,365.372,-3.20E-02
1468.9962,365.472,-3.20E-02
1469.1402,365.572,-3.19E-02
1469.283,365.672,-3.19E-02
1469.427,365.772,-3.33E-02
1469.5704,365.872,-3.44E-02
1469.7132,365.972,-3.39E-02
1469.8572,366.072,-3.23E-02
1470.0012,366.172,-3.18E-02
1470.144,366.272,-3.20E-02
1470.2856,366.372,-3.20E-02
1470.4278,366.472,-3.20E-02
1470.57,366.572,-3.19E-02
1470.7122,366.672,-3.21E-02
1470.8538,366.772,-3.36E-02
1470.9966,366.872,-3.41E-02
1471.14,366.972,-3.40E-02
1471.2816,367.072,-3.41E-02
1471.4244,367.172,-3.26E-02
1471.5666,367.272,-3.21E-02
1471.7088,367.372,-3.30E-02
1471.851,367.472,-3.31E-02
1471.9914,367.572,-3.30E-02
1472.1324,367.672,-3.29E-02
1472.274,367.772,-3.21E-02
1472.4156,367.872,-3.18E-02
1472.556,367.972,-3.22E-02
1472.697,368.072,-3.30E-02
1472.8386,368.172,-3.33E-02
1472.9808,368.272,-3.22E-02
1473.1224,368.372,-3.08E-02
1473.2634,368.472,-3.08E-02
1473.4044,368.572,-3.21E-02
1473.5454,368.672,-3.32E-02
1473.6852,368.772,-3.30E-02
1473.8262,368.872,-3.30E-02
1473.9672,368.972,-3.30E-02
1474.1064,369.072,-3.30E-02
1474.2462,369.172,-3.30E-02
1474.386,369.272,-3.29E-02
1474.5264,369.372,-3.31E-02
1474.6668,369.472,-3.32E-02
1474.8066,369.572,-3.17E-02
1474.9464,369.672,-3.12E-02
1475.085,369.772,-3.29E-02
1475.223,369.872,-3.32E-02
1475.3622,369.972,-3.29E-02
1475.5014,370.072,-3.30E-02
1475.6394,370.172,-3.30E-02
1475.778,370.272,-3.30E-02
1475.9166,370.372,-3.30E-02
1476.0552,370.472,-3.30E-02
1476.1932,370.572,-3.30E-02
1476.3312,370.672,-3.30E-02
1476.4692,370.772,-3.29E-02
1476.6072,370.872,-3.36E-02
1476.7452,370.972,-3.39E-02
1476.8832,371.072,-3.31E-02
1477.0194,371.172,-3.29E-02
1477.1562,371.272,-3.29E-02
1477.2936,371.372,-3.30E-02
1477.4304,371.472,-3.43E-02
1477.5666,371.572,-3.53E-02
1477.704,371.672,-3.50E-02
1477.842,371.772,-3.42E-02
1477.9794,371.872,-3.39E-02
1478.115,371.972,-3.40E-02
1478.2524,372.072,-3.40E-02
1478.3886,372.172,-3.40E-02
1478.5248,372.272,-3.40E-02
1478.6616,372.372,-3.41E-02
1478.7984,372.472,-3.35E-02
1478.9346,372.572,-3.29E-02
1479.0702,372.672,-3.30E-02
1479.207,372.772,-3.28E-02
1479.3432,372.872,-3.33E-02
1479.4788,372.972,-3.48E-02
1479.6156,373.072,-3.54E-02
1479.7518,373.172,-3.45E-02
1479.8874,373.272,-3.31E-02
1480.023,373.372,-3.28E-02
1480.1592,373.472,-3.31E-02
1480.2948,373.572,-3.30E-02
1480.4304,373.672,-3.30E-02
1480.566,373.772,-3.30E-02
1480.701,373.872,-3.30E-02
1480.8354,373.972,-3.31E-02
1480.9704,374.072,-3.28E-02
1481.1054,374.172,-3.30E-02
1481.2398,374.272,-3.45E-02
1481.3742,374.372,-3.52E-02
1481.5086,374.472,-3.50E-02
1481.643,374.572,-3.50E-02
1481.7774,374.672,-3.50E-02
1481.9118,374.772,-3.50E-02
1482.0462,374.872,-3.51E-02
1482.18,374.972,-3.46E-02
1482.3132,375.072,-3.40E-02
1482.447,375.172,-3.39E-02
1482.5814,375.272,-3.40E-02
1482.7152,375.372,-3.40E-02
1482.849,375.472,-3.41E-02
1482.9816,375.572,-3.36E-02
1483.1142,375.672,-3.29E-02
1483.248,375.772,-3.28E-02
1483.3818,375.872,-3.34E-02
1483.515,375.972,-3.40E-02
1483.6488,376.072,-3.40E-02
1483.782,376.172,-3.40E-02
1483.914,376.272,-3.40E-02
1484.0472,376.372,-3.33E-02
1484.1798,376.472,-3.27E-02
1484.3124,376.572,-3.31E-02
1484.445,376.672,-3.45E-02
1484.5776,376.772,-3.52E-02
1484.7102,376.872,-3.50E-02
1484.8428,376.972,-3.49E-02
1484.9748,377.072,-3.51E-02
1485.1062,377.172,-3.50E-02
1485.2382,377.272,-3.43E-02
1485.3702,377.372,-3.39E-02
1485.5022,377.472,-3.40E-02
1485.6336,377.572,-3.40E-02
1485.7644,377.672,-3.40E-02
1485.8952,377.772,-3.40E-02
1486.0266,377.872,-3.39E-02
1486.158,377.972,-3.42E-02
1486.2888,378.072,-3.41E-02
1486.4202,378.172,-3.26E-02
1486.5504,378.272,-3.22E-02
1486.6806,378.372,-3.38E-02
1486.8114,378.472,-3.42E-02
1486.9422,378.572,-3.39E-02
1487.0718,378.672,-3.40E-02
1487.2026,378.772,-3.40E-02
1487.3328,378.872,-3.40E-02
1487.4636,378.972,-3.40E-02
1487.5938,379.072,-3.39E-02
1487.7246,379.172,-3.41E-02
1487.8548,379.272,-3.48E-02
1487.9844,379.372,-3.51E-02
1488.1146,379.472,-3.50E-02
1488.2454,379.572,-3.49E-02
1488.3756,379.672,-3.52E-02
1488.5052,379.772,-3.50E-02
1488.6354,379.872,-3.35E-02
1488.765,379.972,-3.31E-02
1488.894,380.072,-3.40E-02
1489.0236,380.172,-3.41E-02
1489.1532,380.272,-3.40E-02
1489.2828,380.372,-3.40E-02
1489.4124,380.472,-3.40E-02
1489.5414,380.572,-3.40E-02
1489.6704,380.672,-3.39E-02
1489.8,380.772,-3.45E-02
1489.929,380.872,-3.51E-02
1490.0586,380.972,-3.50E-02
1490.1882,381.072,-3.50E-02
1490.3172,381.172,-3.50E-02
1490.4456,381.272,-3.50E-02
1490.5746,381.372,-3.50E-02
1490.7036,381.472,-3.50E-02
1490.832,381.572,-3.51E-02
1490.961,381.672,-3.48E-02
1491.0906,381.772,-3.49E-02
1491.2196,381.872,-3.64E-02
1491.3486,381.972,-3.68E-02
1491.477,382.072,-3.52E-02
1491.606,382.172,-3.48E-02
1491.7344,382.272,-3.51E-02
1491.8628,382.372,-3.50E-02
1491.9912,382.472,-3.50E-02
1492.1196,382.572,-3.50E-02
1492.2486,382.672,-3.50E-02
1492.3764,382.772,-3.51E-02
1492.5042,382.872,-3.50E-02
1492.632,382.972,-3.43E-02
1492.7598,383.072,-3.39E-02
1492.8876,383.172,-3.40E-02
1493.0154,383.272,-3.41E-02
1493.1438,383.372,-3.39E-02
1493.2716,383.472,-3.39E-02
1493.3994,383.572,-3.50E-02
1493.526,383.672,-3.62E-02
1493.6532,383.772,-3.62E-02
1493.7798,383.872,-3.56E-02
1493.9064,383.972,-3.50E-02
1494.033,384.072,-3.50E-02
1494.1596,384.172,-3.50E-02
1494.2868,384.272,-3.50E-02
1494.414,384.372,-3.56E-02
1494.5412,384.472,-3.61E-02
1494.6678,384.572,-3.60E-02
1494.7938,384.672,-3.59E-02
1494.9204,384.772,-3.60E-02
1495.0476,384.872,-3.62E-02
1495.1742,384.972,-3.53E-02
1495.3002,385.072,-3.40E-02
1495.4262,385.172,-3.37E-02
1495.5522,385.272,-3.43E-02
1495.6776,385.372,-3.49E-02
1495.8036,385.472,-3.51E-02
1495.929,385.572,-3.50E-02
1496.0544,385.672,-3.50E-02
1496.1804,385.772,-3.50E-02
1496.3064,385.872,-3.50E-02
1496.4324,385.972,-3.50E-02
1496.5584,386.072,-3.50E-02
1496.6844,386.172,-3.50E-02
1496.8098,386.272,-3.49E-02
1496.9346,386.372,-3.51E-02
1497.0594,386.472,-3.58E-02
1497.1842,386.572,-3.61E-02
1497.3096,386.672,-3.60E-02
1497.435,386.772,-3.59E-02
1497.5598,386.872,-3.62E-02
1497.684,386.972,-3.61E-02
1497.8088,387.072,-3.48E-02
1497.9336,387.172,-3.40E-02
1498.0584,387.272,-3.47E-02
1498.1838,387.372,-3.52E-02
1498.3086,387.472,-3.50E-02
1498.4328,387.572,-3.50E-02
1498.557,387.672,-3.50E-02
1498.6824,387.772,-3.50E-02
1498.8072,387.872,-3.51E-02
1498.9314,387.972,-3.49E-02
1499.0556,388.072,-3.48E-02
1499.1798,388.172,-3.58E-02
1499.3046,388.272,-3.70E-02
1499.4288,388.372,-3.72E-02
1499.5536,388.472,-3.69E-02
1499.6784,388.572,-3.70E-02
1499.802,388.672,-3.70E-02
1499.9256,388.772,-3.70E-02
1500.0492,388.872,-3.70E-02
1500.1734,388.972,-3.70E-02
1500.297,389.072,-3.70E-02
1500.4212,389.172,-3.70E-02
1500.5448,389.272,-3.70E-02
1500.6684,389.372,-3.70E-02
1500.7914,389.472,-3.72E-02
1500.9138,389.572,-3.69E-02
1501.0368,389.672,-3.56E-02
1501.1598,389.772,-3.48E-02
1501.2822,389.872,-3.50E-02
1501.4052,389.972,-3.50E-02
1501.5282,390.072,-3.50E-02
1501.6506,390.172,-3.50E-02
1501.773,390.272,-3.48E-02
1501.8954,390.372,-3.50E-02
1502.0172,390.472,-3.62E-02
1502.139,390.572,-3.72E-02
1502.2608,390.672,-3.71E-02
1502.3826,390.772,-3.69E-02
1502.5056,390.872,-3.70E-02
1502.6286,390.972,-3.71E-02
1502.751,391.072,-3.68E-02
1502.8728,391.172,-3.61E-02
1502.994,391.272,-3.58E-02
1503.1152,391.372,-3.61E-02
1503.2376,391.472,-3.67E-02
1503.3594,391.572,-3.71E-02
1503.4824,391.672,-3.70E-02
1503.6048,391.772,-3.70E-02
1503.7272,391.872,-3.70E-02
1503.849,391.972,-3.70E-02
1503.9702,392.072,-3.71E-02
1504.092,392.172,-3.70E-02
1504.2144,392.272,-3.63E-02
1504.3362,392.372,-3.61E-02
1504.4574,392.472,-3.68E-02
1504.5792,392.572,-3.71E-02
1504.701,392.672,-3.70E-02
1504.8228,392.772,-3.70E-02
1504.944,392.872,-3.70E-02
1505.0652,392.972,-3.70E-02
1505.1858,393.072,-3.70E-02
1505.307,393.172,-3.70E-02
1505.4288,393.272,-3.70E-02
1505.5506,393.372,-3.69E-02
1505.6718,393.472,-3.69E-02
1505.7936,393.572,-3.74E-02
1505.9142,393.672,-3.81E-02
1506.0348,393.772,-3.82E-02
1506.1548,393.872,-3.77E-02
1506.2748,393.972,-3.71E-02
1506.3948,394.072,-3.69E-02
1506.5148,394.172,-3.70E-02
1506.6348,394.272,-3.70E-02
1506.7548,394.372,-3.70E-02
1506.8748,394.472,-3.70E-02
1506.9954,394.572,-3.70E-02
1507.1154,394.672,-3.70E-02
1507.2354,394.772,-3.69E-02
1507.3554,394.872,-3.72E-02
1507.4754,394.972,-3.79E-02
1507.5954,395.072,-3.81E-02
1507.7148,395.172,-3.80E-02
1507.8342,395.272,-3.80E-02
1507.9536,395.372,-3.80E-02
1508.0736,395.472,-3.80E-02
1508.193,395.572,-3.82E-02
1508.3124,395.672,-3.79E-02
1508.4312,395.772,-3.65E-02
1508.5506,395.872,-3.60E-02
1508.6706,395.972,-3.68E-02
1508.7906,396.072,-3.72E-02
1508.91,396.172,-3.70E-02
1509.03,396.272,-3.70E-02
1509.1494,396.372,-3.70E-02
1509.2694,396.472,-3.70E-02
1509.3882,396.572,-3.70E-02
1509.507,396.672,-3.70E-02
1509.6258,396.772,-3.71E-02
1509.7446,396.872,-3.69E-02
1509.8628,396.972,-3.68E-02
1509.981,397.072,-3.78E-02
1510.0998,397.172,-3.90E-02
1510.2186,397.272,-3.92E-02
1510.3368,397.372,-3.90E-02
1510.455,397.472,-3.90E-02
1510.5726,397.572,-3.90E-02
1510.6902,397.672,-3.90E-02
1510.8084,397.772,-3.90E-02
1510.9266,397.872,-3.90E-02
1511.0454,397.972,-3.90E-02
1511.1636,398.072,-3.90E-02
1511.2806,398.172,-3.90E-02
1511.3976,398.272,-3.90E-02
1511.5158,398.372,-3.90E-02
1511.634,398.472,-3.90E-02
1511.7516,398.572,-3.90E-02
1511.8686,398.672,-3.90E-02
1511.9862,398.772,-3.90E-02
1512.1038,398.872,-3.90E-02
1512.2214,398.972,-3.90E-02
1512.3384,399.072,-3.90E-02
1512.456,399.172,-3.90E-02
1512.573,399.272,-3.90E-02
1512.69,399.372,-3.90E-02
1512.8064,399.472,-3.91E-02
1512.9234,399.572,-3.90E-02
1513.041,399.672,-3.88E-02
1513.158,399.772,-3.95E-02
1513.2744,399.872,-4.08E-02
1513.3908,399.972,-4.14E-02
1513.5072,400.072,-4.09E-02
1513.6236,400.172,-3.97E-02
1513.74,400.272,-3.88E-02
1513.8558,400.372,-3.89E-02
1513.9722,400.472,-3.91E-02
1514.0886,400.572,-3.90E-02
1514.2044,400.672,-3.90E-02
1514.3202,400.772,-3.90E-02
1514.4366,400.872,-3.90E-02
1514.5524,400.972,-3.90E-02
1514.6682,401.072,-3.90E-02
1514.784,401.172,-3.90E-02
1514.8998,401.272,-3.90E-02
1515.0162,401.372,-3.90E-02
1515.132,401.472,-3.90E-02
1515.2484,401.572,-3.90E-02
1515.3642,401.672,-3.90E-02
1515.4794,401.772,-3.90E-02
1515.5952,401.872,-3.90E-02
1515.7104,401.972,-3.90E-02
1515.8256,402.072,-3.90E-02
1515.9414,402.172,-3.90E-02
1516.0566,402.272,-3.90E-02
1516.1718,402.372,-3.90E-02
1516.287,402.472,-3.90E-02
1516.4022,402.572,-3.88E-02
1516.5174,402.672,-3.91E-02
1516.632,402.772,-4.04E-02
1516.7466,402.872,-4.12E-02
1516.8618,402.972,-4.11E-02
1516.9764,403.072,-4.09E-02
1517.091,403.172,-4.10E-02
1517.2062,403.272,-4.10E-02
1517.3208,403.372,-4.10E-02
1517.4348,403.472,-4.10E-02
1517.5488,403.572,-4.10E-02
1517.6634,403.672,-4.10E-02
1517.7774,403.772,-4.10E-02
1517.892,403.872,-4.10E-02
1518.0066,403.972,-4.10E-02
1518.1206,404.072,-4.10E-02
1518.2352,404.172,-4.10E-02
1518.3492,404.272,-4.09E-02
1518.4632,404.372,-4.09E-02
1518.5772,404.472,-4.14E-02
1518.6912,404.572,-4.20E-02
1518.8058,404.672,-4.21E-02
1518.9204,404.772,-4.20E-02
1519.0344,404.872,-4.20E-02
1519.1478,404.972,-4.20E-02
1519.2624,405.072,-4.20E-02
1519.3764,405.172,-4.20E-02
1519.4898,405.272,-4.20E-02
1519.6038,405.372,-4.20E-02
1519.7178,405.472,-4.20E-02
1519.8312,405.572,-4.20E-02
1519.9452,405.672,-4.20E-02
1520.0598,405.772,-4.20E-02
1520.1732,405.872,-4.20E-02
1520.286,405.972,-4.20E-02
1520.3994,406.072,-4.19E-02
1520.5128,406.172,-4.20E-02
1520.6256,406.272,-4.26E-02
1520.7384,406.372,-4.31E-02
1520.8506,406.472,-4.31E-02
1520.9634,406.572,-4.30E-02
1521.0762,406.672,-4.30E-02
1521.189,406.772,-4.30E-02
1521.3012,406.872,-4.30E-02
1521.4128,406.972,-4.30E-02
1521.5244,407.072,-4.30E-02
1521.6366,407.172,-4.30E-02
1521.7494,407.272,-4.30E-02
1521.8616,407.372,-4.30E-02
1521.9738,407.472,-4.30E-02
1522.0866,407.572,-4.30E-02
1522.1988,407.672,-4.29E-02
1522.3104,407.772,-4.30E-02
1522.422,407.872,-4.36E-02
1522.5342,407.972,-4.41E-02
1522.6458,408.072,-4.41E-02
1522.758,408.172,-4.40E-02
1522.8702,408.272,-4.40E-02
1522.9824,408.372,-4.40E-02
1523.0946,408.472,-4.40E-02
1523.2068,408.572,-4.40E-02
1523.3184,408.672,-4.40E-02
1523.43,408.772,-4.40E-02
1523.5422,408.872,-4.40E-02
1523.655,408.972,-4.40E-02
1523.7666,409.072,-4.40E-02
1523.8782,409.172,-4.40E-02
1523.9892,409.272,-4.40E-02
1524.1014,409.372,-4.40E-02
1524.213,409.472,-4.40E-02
1524.3246,409.572,-4.40E-02
1524.4362,409.672,-4.39E-02
1524.5472,409.772,-4.42E-02
1524.6582,409.872,-4.48E-02
1524.7692,409.972,-4.51E-02
1524.8802,410.072,-4.50E-02
1524.9912,410.172,-4.50E-02
1525.1022,410.272,-4.50E-02
1525.2132,410.372,-4.50E-02
1525.3242,410.472,-4.50E-02
1525.4352,410.572,-4.50E-02
1525.5462,410.672,-4.50E-02
1525.6566,410.772,-4.50E-02
1525.767,410.872,-4.50E-02
1525.8774,410.972,-4.50E-02
1525.9884,411.072,-4.50E-02
1526.0988,411.172,-4.50E-02
1526.2086,411.272,-4.50E-02
1526.319,411.372,-4.50E-02
1526.43,411.472,-4.50E-02
1526.5404,411.572,-4.50E-02
1526.6514,411.672,-4.50E-02
1526.7618,411.772,-4.49E-02
1526.8722,411.872,-4.49E-02
1526.9826,411.972,-4.54E-02
1527.0924,412.072,-4.60E-02
1527.2028,412.172,-4.61E-02
1527.3132,412.272,-4.60E-02
1527.4236,412.372,-4.60E-02
1527.534,412.472,-4.60E-02
1527.6438,412.572,-4.60E-02
1527.7536,412.672,-4.60E-02
1527.8628,412.772,-4.60E-02
1527.972,412.872,-4.60E-02
1528.0812,412.972,-4.60E-02
1528.1904,413.072,-4.60E-02
1528.3002,413.172,-4.60E-02
1528.4106,413.272,-4.60E-02
1528.5204,413.372,-4.60E-02
1528.6302,413.472,-4.60E-02
1528.74,413.572,-4.60E-02
1528.8492,413.672,-4.60E-02
1528.959,413.772,-4.60E-02
1529.0682,413.872,-4.60E-02
1529.1774,413.972,-4.58E-02
1529.2866,414.072,-4.59E-02
1529.3952,414.172,-4.69E-02
1529.5044,414.272,-4.80E-02
1529.6142,414.372,-4.82E-02
1529.7234,414.472,-4.80E-02
1529.832,414.572,-4.80E-02
1529.9406,414.672,-4.80E-02
1530.0498,414.772,-4.80E-02
1530.159,414.872,-4.80E-02
1530.2682,414.972,-4.80E-02
1530.3768,415.072,-4.80E-02
1530.486,415.172,-4.80E-02
1530.5946,415.272,-4.80E-02
1530.7038,415.372,-4.80E-02
1530.8124,415.472,-4.80E-02
1530.9204,415.572,-4.80E-02
1531.029,415.672,-4.80E-02
1531.137,415.772,-4.80E-02
1531.245,415.872,-4.80E-02
1531.3536,415.972,-4.80E-02
1531.4616,416.072,-4.80E-02
1531.5702,416.172,-4.80E-02
1531.6782,416.272,-4.80E-02
1531.7868,416.372,-4.80E-02
1531.8948,416.472,-4.80E-02
1532.0034,416.572,-4.80E-02
1532.1114,416.672,-4.80E-02
1532.2176,416.772,-4.80E-02
1532.325,416.872,-4.80E-02
1532.433,416.972,-4.80E-02
1532.5416,417.072,-4.80E-02
1532.649,417.172,-4.80E-02
1532.7564,417.272,-4.80E-02
1532.8644,417.372,-4.80E-02
1532.9724,417.472,-4.80E-02
1533.0798,417.572,-4.80E-02
1533.1872,417.672,-4.80E-02
1533.294,417.772,-4.80E-02
1533.402,417.872,-4.80E-02
1533.5094,417.972,-4.80E-02
1533.6174,418.072,-4.80E-02
1533.7248,418.172,-4.80E-02
1533.8322,418.272,-4.79E-02
1533.9396,418.372,-4.82E-02
1534.0464,418.472,-4.88E-02
1534.1538,418.572,-4.91E-02
1534.2612,418.672,-4.90E-02
1534.368,418.772,-4.90E-02
1534.4748,418.872,-4.90E-02
1534.5816,418.972,-4.88E-02
1534.6884,419.072,-4.89E-02
1534.7958,419.172,-5.00E-02
1534.9032,419.272,-5.10E-02
1535.0106,419.372,-5.12E-02
1535.1174,419.472,-5.10E-02
1535.2236,419.572,-5.10E-02
1535.3304,419.672,-5.10E-02
1535.4372,419.772,-5.10E-02
1535.544,419.872,-5.10E-02
1535.6508,419.972,-5.10E-02
1535.7576,420.072,-5.09E-02
1535.865,420.172,-5.09E-02
1535.9718,420.272,-5.13E-02
1536.0774,420.372,-5.19E-02
1536.1836,420.472,-5.21E-02
1536.2904,420.572,-5.20E-02
1536.3966,420.672,-5.20E-02
1536.5034,420.772,-5.20E-02
1536.6096,420.872,-5.20E-02
1536.7164,420.972,-5.20E-02
1536.822,421.072,-5.20E-02
1536.9282,421.172,-5.20E-02
1537.035,421.272,-5.20E-02
1537.1418,421.372,-5.20E-02
1537.248,421.472,-5.20E-02
1537.3542,421.572,-5.20E-02
1537.461,421.672,-5.20E-02
1537.5666,421.772,-5.20E-02
1537.6716,421.872,-5.20E-02
1537.7778,421.972,-5.18E-02
1537.884,422.072,-5.19E-02
1537.9896,422.172,-5.29E-02
1538.0952,422.272,-5.40E-02
1538.2008,422.372,-5.42E-02
1538.3064,422.472,-5.40E-02
1538.412,422.572,-5.40E-02
1538.5176,422.672,-5.40E-02
1538.6232,422.772,-5.40E-02
1538.7294,422.872,-5.40E-02
1538.8344,422.972,-5.40E-02
1538.94,423.072,-5.40E-02
1539.0462,423.172,-5.40E-02
1539.1512,423.272,-5.40E-02
1539.2568,423.372,-5.40E-02
1539.3618,423.472,-5.40E-02
1539.4668,423.572,-5.40E-02
1539.5718,423.672,-5.40E-02
1539.6762,423.772,-5.40E-02
1539.7812,423.872,-5.40E-02
1539.8862,423.972,-5.40E-02
1539.9912,424.072,-5.40E-02
1540.0968,424.172,-5.40E-02
1540.2024,424.272,-5.41E-02
1540.308,424.372,-5.40E-02
1540.413,424.472,-5.38E-02
1540.5174,424.572,-5.41E-02
1540.6224,424.672,-5.53E-02
1540.7274,424.772,-5.61E-02
1540.8324,424.872,-5.61E-02
1540.9374,424.972,-5.60E-02
1541.0418,425.072,-5.60E-02
1541.1468,425.172,-5.60E-02
1541.2518,425.272,-5.60E-02
1541.3568,425.372,-5.60E-02
1541.4612,425.472,-5.60E-02
1541.5662,425.572,-5.60E-02
1541.6706,425.672,-5.60E-02
1541.7744,425.772,-5.59E-02
1541.8782,425.872,-5.59E-02
1541.9826,425.972,-5.64E-02
1542.087,426.072,-5.70E-02
1542.1914,426.172,-5.72E-02
1542.2958,426.272,-5.70E-02
1542.4008,426.372,-5.68E-02
1542.5052,426.472,-5.70E-02
1542.6096,426.572,-5.81E-02
1542.7134,426.672,-5.91E-02
1542.8172,426.772,-5.92E-02
1542.921,426.872,-5.90E-02
1543.0248,426.972,-5.88E-02
1543.1292,427.072,-5.91E-02
1543.2336,427.172,-5.97E-02
1543.3374,427.272,-6.01E-02
1543.4418,427.372,-6.01E-02
1543.5456,427.472,-6.00E-02
1543.6494,427.572,-6.00E-02
1543.7532,427.672,-5.99E-02
1543.857,427.772,-5.99E-02
1543.9602,427.872,-6.03E-02
1544.0634,427.972,-6.09E-02
1544.1672,428.072,-6.11E-02
1544.2704,428.172,-6.10E-02
1544.3742,428.272,-6.10E-02
1544.478,428.372,-6.10E-02
1544.5818,428.472,-6.10E-02
1544.685,428.572,-6.10E-02
1544.7888,428.672,-6.09E-02
1544.8926,428.772,-6.10E-02
1544.9964,428.872,-6.15E-02
1545.0996,428.972,-6.20E-02
1545.2028,429.072,-6.21E-02
1545.3066,429.172,-6.20E-02
1545.4098,429.272,-6.20E-02
1545.5136,429.372,-6.20E-02
1545.6162,429.472,-6.21E-02
1545.7194,429.572,-6.20E-02
1545.822,429.672,-6.18E-02
1545.9246,429.772,-6.22E-02
1546.0278,429.872,-6.33E-02
1546.1304,429.972,-6.41E-02
1546.2336,430.072,-6.41E-02
1546.3362,430.172,-6.40E-02
1546.4388,430.272,-6.40E-02
1546.542,430.372,-6.40E-02
1546.6452,430.472,-6.40E-02
1546.7484,430.572,-6.40E-02
1546.851,430.672,-6.40E-02
1546.9536,430.772,-6.40E-02
1547.0562,430.872,-6.40E-02
1547.1594,430.972,-6.40E-02
1547.262,431.072,-6.40E-02
1547.3646,431.172,-6.40E-02
1547.4672,431.272,-6.40E-02
1547.5692,431.372,-6.38E-02
1547.6718,431.472,-6.39E-02
1547.7744,431.572,-6.47E-02
1547.8776,431.672,-6.58E-02
1547.9802,431.772,-6.62E-02
1548.0828,431.872,-6.60E-02
1548.1854,431.972,-6.60E-02
1548.288,432.072,-6.60E-02
1548.3906,432.172,-6.59E-02
1548.4926,432.272,-6.60E-02
1548.5958,432.372,-6.65E-02
1548.6984,432.472,-6.70E-02
1548.8004,432.572,-6.71E-02
1548.9024,432.672,-6.70E-02
1549.005,432.772,-6.70E-02
1549.107,432.872,-6.70E-02
1549.209,432.972,-6.68E-02
1549.311,433.072,-6.71E-02
1549.4136,433.172,-6.82E-02
1549.5156,433.272,-6.91E-02
1549.6176,433.372,-6.92E-02
1549.7202,433.472,-6.90E-02
1549.8222,433.572,-6.90E-02
1549.9248,433.672,-6.90E-02
1550.0262,433.772,-6.90E-02
1550.1282,433.872,-6.90E-02
1550.2302,433.972,-6.90E-02
1550.3316,434.072,-6.90E-02
1550.433,434.172,-6.91E-02
1550.5344,434.272,-6.89E-02
1550.6364,434.372,-6.88E-02
1550.7378,434.472,-6.93E-02
1550.8398,434.572,-7.05E-02
1550.9418,434.672,-7.12E-02
1551.0438,434.772,-7.11E-02
1551.1452,434.872,-7.09E-02
1551.246,434.972,-7.09E-02
1551.3474,435.072,-7.12E-02
1551.45,435.172,-7.18E-02
1551.552,435.272,-7.21E-02
1551.6528,435.372,-7.21E-02
1551.7542,435.472,-7.19E-02
1551.855,435.572,-7.19E-02
1551.957,435.672,-7.23E-02
1552.0584,435.772,-7.28E-02
1552.1604,435.872,-7.31E-02
1552.2612,435.972,-7.31E-02
1552.3626,436.072,-7.29E-02
1552.4628,436.172,-7.29E-02
1552.5642,436.272,-7.33E-02
1552.6656,436.372,-7.39E-02
1552.7664,436.472,-7.41E-02
1552.8672,436.572,-7.41E-02
1552.968,436.672,-7.38E-02
1553.0688,436.772,-7.38E-02
1553.1696,436.872,-7.46E-02
1553.2698,436.972,-7.58E-02
1553.3706,437.072,-7.62E-02
1553.4708,437.172,-7.61E-02
1553.5722,437.272,-7.59E-02
1553.673,437.372,-7.59E-02
1553.7744,437.472,-7.64E-02
1553.8752,437.572,-7.69E-02
1553.976,437.672,-7.71E-02
1554.0768,437.772,-7.70E-02
1554.1782,437.872,-7.69E-02
1554.279,437.972,-7.69E-02
1554.3798,438.072,-7.74E-02
1554.4806,438.172,-7.79E-02
1554.5814,438.272,-7.81E-02
1554.6822,438.372,-7.80E-02
1554.7824,438.472,-7.79E-02
1554.8832,438.572,-7.79E-02
1554.9846,438.672,-7.85E-02
1555.0854,438.772,-7.90E-02
1555.1862,438.872,-7.89E-02
1555.2864,438.972,-7.89E-02
1555.3878,439.072,-7.98E-02
1555.4886,439.172,-8.09E-02
1555.59,439.272,-8.12E-02
1555.6908,439.372,-8.10E-02
1555.7916,439.472,-8.09E-02
1555.893,439.572,-8.10E-02
1555.9938,439.672,-8.11E-02
1556.0946,439.772,-8.10E-02
1556.1948,439.872,-8.08E-02
1556.2944,439.972,-8.10E-02
1556.394,440.072,-8.19E-02
1556.4942,440.172,-8.30E-02
1556.5938,440.272,-8.33E-02
1556.694,440.372,-8.30E-02
1556.7936,440.472,-8.27E-02
1556.8938,440.572,-8.30E-02
1556.994,440.672,-8.40E-02
1557.0942,440.772,-8.50E-02
1557.1938,440.872,-8.51E-02
1557.2934,440.972,-8.50E-02
1557.393,441.072,-8.54E-02
1557.4926,441.172,-8.60E-02
1557.5928,441.272,-8.60E-02
1557.6924,441.372,-8.60E-02
1557.792,441.472,-8.65E-02
1557.8916,441.572,-8.70E-02
1557.9912,441.672,-8.70E-02
1558.0908,441.772,-8.70E-02
1558.1904,441.872,-8.75E-02
1558.2894,441.972,-8.80E-02
1558.389,442.072,-8.79E-02
1558.488,442.172,-8.79E-02
1558.5876,442.272,-8.88E-02
1558.6866,442.372,-8.99E-02
1558.7862,442.472,-9.01E-02
1558.8858,442.572,-9.00E-02
1558.9854,442.672,-9.04E-02
1559.085,442.772,-9.10E-02
1559.1846,442.872,-9.09E-02
1559.2836,442.972,-9.09E-02
1559.3826,443.072,-9.18E-02
1559.4822,443.172,-9.29E-02
1559.5812,443.272,-9.31E-02
1559.6802,443.372,-9.30E-02
1559.7786,443.472,-9.33E-02
1559.877,443.572,-9.39E-02
1559.976,443.672,-9.40E-02
1560.0756,443.772,-9.40E-02
1560.1746,443.872,-9.43E-02
1560.273,443.972,-9.49E-02
1560.372,444.072,-9.52E-02
1560.471,444.172,-9.51E-02
1560.57,444.272,-9.48E-02
1560.6684,444.372,-9.48E-02
1560.7668,444.472,-9.57E-02
1560.8658,444.572,-9.68E-02
1560.9648,444.672,-9.71E-02
1561.0632,444.772,-9.69E-02
1561.1622,444.872,-9.75E-02
1561.2612,444.972,-9.87E-02
1561.3602,445.072,-9.91E-02
1561.4592,445.172,-9.90E-02
1561.5576,445.272,-9.92E-02
1561.656,445.372,-9.98E-02
1561.7544,445.472,-1.00E-01
1561.8534,445.572,-9.99E-02
1561.9518,445.672,-0.10045
1562.0502,445.772,-0.10161
1562.1486,445.872,-0.10209
1562.2476,445.972,-0.1019
1562.3466,446.072,-0.10237
1562.4456,446.172,-0.10354
1562.544,446.272,-0.1041
1562.6424,446.372,-0.10392
1562.7408,446.472,-0.1043
1562.8398,446.572,-0.10545
1562.9382,446.672,-0.10614
1563.036,446.772,-0.10603
1563.1344,446.872,-0.10611
1563.2328,446.972,-0.1067
1563.3312,447.072,-0.10702
1563.429,447.172,-0.10688
1563.5268,447.272,-0.10718
1563.6252,447.372,-0.10825
1563.723,447.472,-0.10914
1563.8208,447.572,-0.10927
1563.9186,447.672,-0.10891
1564.0164,447.772,-0.10861
1564.1148,447.872,-0.10917
1564.2126,447.972,-0.1108
1564.311,448.072,-0.11207
1564.4082,448.172,-0.11207
1564.506,448.272,-0.11203
1564.6038,448.372,-0.113
1564.7022,448.472,-0.11401
1564.8006,448.572,-0.11413
1564.8984,448.672,-0.114
1564.9962,448.772,-0.11437
1565.094,448.872,-0.11497
1565.1918,448.972,-0.11537
1565.2896,449.072,-0.11591
1565.3874,449.172,-0.11698
1565.4852,449.272,-0.11793
1565.583,449.372,-0.11802
1565.6802,449.472,-0.11793
1565.778,449.572,-0.1187
1565.8752,449.672,-0.11981
1565.973,449.772,-0.1202
1566.0708,449.872,-0.12003
1566.1686,449.972,-0.1201
1566.2658,450.072,-0.12068
1566.3636,450.172,-0.12174
1566.4608,450.272,-0.12277
1566.558,450.372,-0.12304
1566.6552,450.472,-0.12289
1566.7524,450.572,-0.12344
1566.8496,450.672,-0.12459
1566.9468,450.772,-0.12511
1567.0446,450.872,-0.12495
1567.1418,450.972,-0.12526
1567.2384,451.072,-0.12633
1567.3356,451.172,-0.12728
1567.4328,451.272,-0.12775
1567.5294,451.372,-0.12813
1567.6266,451.472,-0.12863
1567.7232,451.572,-0.1291
1567.821,451.672,-0.12949
1567.9182,451.772,-0.13016
1568.0148,451.872,-0.1312
1568.112,451.972,-0.13208
1568.2092,452.072,-0.1325
1568.307,452.172,-0.13306
1568.4042,452.272,-0.13414
1568.5014,452.372,-0.13501
1568.5986,452.472,-0.13504
1568.6958,452.572,-0.13499
1568.7924,452.672,-0.13568
1568.8896,452.772,-0.13686
1568.9862,452.872,-0.13802
1569.0834,452.972,-0.13889
1569.1806,453.072,-0.13938
1569.2772,453.172,-0.13984
1569.3738,453.272,-0.14072
1569.4704,453.372,-0.14175
1569.567,453.472,-0.14237
1569.663,453.572,-0.14277
1569.7596,453.672,-0.14356
1569.8556,453.772,-0.14461
1569.9516,453.872,-0.14529
1570.0482,453.972,-0.14567
1570.1448,454.072,-0.14644
1570.2408,454.172,-0.14754
1570.3368,454.272,-0.1481
1570.4322,454.372,-0.14797
1570.5282,454.472,-0.14813
1570.6242,454.572,-0.14905
1570.7202,454.672,-0.15025
1570.8162,454.772,-0.15129
1570.9122,454.872,-0.15208
1571.0076,454.972,-0.15262
1571.103,455.072,-0.15301
1571.1978,455.172,-0.15341
1571.2932,455.272,-0.15395
1571.388,455.372,-0.15475
1571.4834,455.472,-0.1558
1571.5794,455.572,-0.15698
1571.6754,455.672,-0.15788
1571.7708,455.772,-0.15805
1571.8662,455.872,-0.15793
1571.9622,455.972,-0.1584
1572.0582,456.072,-0.15948
1572.1542,456.172,-0.16063
1572.2496,456.272,-0.16159
1572.345,456.372,-0.1623
1572.441,456.472,-0.16277
1572.537,456.572,-0.16313
1572.6324,456.672,-0.16355
1572.7278,456.772,-0.16425
1572.8232,456.872,-0.16525
1572.9186,456.972,-0.16615
1573.0146,457.072,-0.1667
1573.11,457.172,-0.16703
1573.2054,457.272,-0.16736
1573.3008,457.372,-0.16801
1573.3962,457.472,-0.16909
1573.4922,457.572,-0.16996
1573.5876,457.672,-0.17002
1573.683,457.772,-0.16994
1573.779,457.872,-0.17064
1573.8744,457.972,-0.17175
1573.9704,458.072,-0.17247
1574.0664,458.172,-0.17285
1574.1612,458.272,-0.17335
1574.2566,458.372,-0.17388
1574.3514,458.472,-0.17398
1574.4468,458.572,-0.17386
1574.5416,458.672,-0.1743
1574.6358,458.772,-0.17536
1574.7312,458.872,-0.17621
1574.826,458.972,-0.17659
1574.9214,459.072,-0.17719
1575.0162,459.172,-0.17827
1575.111,459.272,-0.17905
1575.2052,459.372,-0.17904
1575.3,459.472,-0.179
1575.3948,459.572,-0.17956
1575.4902,459.672,-0.18
1575.585,459.772,-0.17956
1575.6798,459.872,-0.17901
1575.7746,459.972,-0.17947
1575.8694,460.072,-0.18064
1575.9642,460.172,-0.18158
1576.0578,460.272,-0.18198
1576.1526,460.372,-0.18192
1576.2468,460.472,-0.18181
1576.341,460.572,-0.18236
1576.4352,460.672,-0.18346
1576.53,460.772,-0.18408
1576.6242,460.872,-0.18394
1576.719,460.972,-0.18411
1576.8126,461.072,-0.18513
1576.9068,461.172,-0.18604
1577.0016,461.272,-0.1861
1577.0958,461.372,-0.18599
1577.19,461.472,-0.18644
1577.2842,461.572,-0.18696
1577.379,461.672,-0.18694
1577.4732,461.772,-0.18689
1577.5674,461.872,-0.18763
1577.6616,461.972,-0.18872
1577.7558,462.072,-0.18909
1577.8494,462.172,-0.18891
1577.9436,462.272,-0.18933
1578.0378,462.372,-0.19043
1578.132,462.472,-0.19113
1578.2262,462.572,-0.19105
1578.3198,462.672,-0.19105
1578.414,462.772,-0.19159
1578.5076,462.872,-0.19201
1578.6018,462.972,-0.1919
1578.696,463.072,-0.19198
1578.7902,463.172,-0.19288
1578.8844,463.272,-0.1939
1578.9786,463.372,-0.19413
1579.0722,463.472,-0.19399
1579.1664,463.572,-0.19427
1579.26,463.672,-0.19484
1579.3536,463.772,-0.19505
1579.4472,463.872,-0.19495
1579.5414,463.972,-0.19517
1579.6356,464.072,-0.19574
1579.7298,464.172,-0.19601
1579.8234,464.272,-0.19587
1579.9176,464.372,-0.19612
1580.0112,464.472,-0.19714
1580.1048,464.572,-0.19803
1580.1984,464.672,-0.19809
1580.2926,464.772,-0.19799
1580.3868,464.872,-0.19842
1580.481,464.972,-0.19895
1580.5752,465.072,-0.19895
1580.6688,465.172,-0.19888
1580.7618,465.272,-0.19956
1580.8548,465.372,-0.20066
1580.9484,465.472,-0.20109
1581.042,465.572,-0.20092
1581.1356,465.672,-0.20125
1581.2292,465.772,-0.20233
1581.3228,465.872,-0.2031
1581.4158,465.972,-0.20307
1581.5094,466.072,-0.20302
1581.6024,466.172,-0.20352
1581.696,466.272,-0.20399
1581.7896,466.372,-0.20393
1581.8832,466.472,-0.20392
1581.9774,466.572,-0.20472
1582.071,466.672,-0.20578
1582.164,466.772,-0.20615
1582.257,466.872,-0.206
1582.3506,466.972,-0.20618
1582.4436,467.072,-0.20674
1582.5366,467.172,-0.20705
1582.629,467.272,-0.20697
1582.722,467.372,-0.20707
1582.815,467.472,-0.20759
1582.908,467.572,-0.20802
1583.001,467.672,-0.20799
1583.0934,467.772,-0.20798
1583.1858,467.872,-0.20844
1583.2788,467.972,-0.20895
1583.3724,468.072,-0.20895
1583.466,468.172,-0.20887
1583.559,468.272,-0.20953
1583.652,468.372,-0.21062
1583.7444,468.472,-0.2111
1583.8368,468.572,-0.21093
1583.9298,468.672,-0.21119
1584.0222,468.772,-0.21221
1584.1152,468.872,-0.21309
1584.2076,468.972,-0.21324
1584.3006,469.072,-0.213
1584.393,469.172,-0.21283
1584.4854,469.272,-0.21294
1584.5772,469.372,-0.21343
1584.6702,469.472,-0.21393
1584.7626,469.572,-0.21396
1584.855,469.672,-0.21385
1584.9474,469.772,-0.2144
1585.0404,469.872,-0.21549
1585.1328,469.972,-0.21611
1585.2252,470.072,-0.21601
1585.3176,470.172,-0.21606
1585.41,470.272,-0.21667
1585.5018,470.372,-0.217
1585.5948,470.472,-0.21645
1585.6872,470.572,-0.21598
1585.7802,470.672,-0.21665
1585.8726,470.772,-0.21777
1585.965,470.872,-0.21817
1586.0568,470.972,-0.218
1586.1486,471.072,-0.21818
1586.2404,471.172,-0.21875
1586.3328,471.272,-0.21902
1586.4252,471.372,-0.21887
1586.5176,471.472,-0.21912
1586.61,471.572,-0.22012
1586.7018,471.672,-0.22101
1586.7942,471.772,-0.2211
1586.886,471.872,-0.22098
1586.9784,471.972,-0.22136
1587.0708,472.072,-0.22191
1587.1632,472.172,-0.22198
1587.255,472.272,-0.22186
1587.3474,472.372,-0.2224
1587.4392,472.472,-0.22349
1587.531,472.572,-0.22409
1587.6228,472.672,-0.22395
1587.7152,472.772,-0.22409
1587.8076,472.872,-0.22507
1587.9,472.972,-0.226
1587.9918,473.072,-0.22612
1588.0836,473.172,-0.22598
1588.1754,473.272,-0.22634
1588.2672,473.372,-0.22689
1588.359,473.472,-0.22699
1588.4502,473.572,-0.22686
1588.542,473.672,-0.22734
1588.6338,473.772,-0.2284
1588.7262,473.872,-0.22911
1588.818,473.972,-0.22907
1588.9098,474.072,-0.22902
1589.0016,474.172,-0.22948
1589.0928,474.272,-0.22998
1589.1846,474.372,-0.23002
1589.2764,474.472,-0.22996
1589.3688,474.572,-0.23033
1589.4612,474.672,-0.23087
1589.5524,474.772,-0.23099
1589.6436,474.872,-0.23085
1589.7348,474.972,-0.23128
1589.8266,475.072,-0.23235
1589.9178,475.172,-0.23306
1590.009,475.272,-0.23298
1590.1002,475.372,-0.233
1590.192,475.472,-0.23388
1590.2838,475.572,-0.23489
1590.375,475.672,-0.23514
1590.4668,475.772,-0.23498
1590.558,475.872,-0.23524
1590.6492,475.972,-0.23581
1590.741,476.072,-0.23601
1590.8322,476.172,-0.23586
1590.9234,476.272,-0.23617
1591.0146,476.372,-0.2372
1591.1058,476.472,-0.23803
1591.197,476.572,-0.238
1591.2882,476.672,-0.23795
1591.3794,476.772,-0.23873
1591.47,476.872,-0.23978
1591.5612,476.972,-0.24011
1591.6518,477.072,-0.23995
1591.743,477.172,-0.24025
1591.8348,477.272,-0.24093
1591.9254,477.372,-0.24083
1592.016,477.472,-0.23968
1592.1066,477.572,-0.239
1592.1972,477.672,-0.2398
1592.289,477.772,-0.24092
1592.3802,477.872,-0.2411
1592.4714,477.972,-0.24093
1592.5626,478.072,-0.24151
1592.6532,478.172,-0.2426
1592.7438,478.272,-0.24315
1592.835,478.372,-0.24303
1592.9256,478.472,-0.24308
1593.0162,478.572,-0.24361
1593.1074,478.672,-0.24401
1593.198,478.772,-0.2439
1593.2886,478.872,-0.24394
1593.3798,478.972,-0.24478
1593.4704,479.072,-0.2458
1593.561,479.172,-0.24607
1593.6522,479.272,-0.2459
1593.7428,479.372,-0.24633
1593.8334,479.472,-0.24741
1593.9246,479.572,-0.24808
1594.0152,479.672,-0.24797
1594.1064,479.772,-0.24803
1594.1976,479.872,-0.24894
1594.2888,479.972,-0.24993
1594.3794,480.072,-0.25014
1594.47,480.172,-0.24998
1594.5606,480.272,-0.25025
1594.6512,480.372,-0.25082
1594.7424,480.472,-0.25101
1594.833,480.572,-0.25086
1594.9236,480.672,-0.25117
1595.0136,480.772,-0.2522
1595.1042,480.872,-0.25302
1595.1948,480.972,-0.253
1595.2854,481.072,-0.25294
1595.3766,481.172,-0.25371
1595.4672,481.272,-0.25476
1595.5578,481.372,-0.25509
1595.6484,481.472,-0.25491
1595.739,481.572,-0.25528
1595.8296,481.672,-0.25633
1595.9202,481.772,-0.25709
1596.0108,481.872,-0.25708
1596.102,481.972,-0.257
1596.1926,482.072,-0.25745
1596.2826,482.172,-0.25795
1596.3726,482.272,-0.25795
1596.4626,482.372,-0.25786
1596.5532,482.472,-0.25847
1596.6438,482.572,-0.25955
1596.7338,482.672,-0.26007
1596.8238,482.772,-0.25989
1596.9138,482.872,-0.26011
1597.0038,482.972,-0.26123
1597.0938,483.072,-0.262
1597.1844,483.172,-0.26131
1597.2744,483.272,-0.26017
1597.365,483.372,-0.26006
1597.455,483.472,-0.26074
1597.545,483.572,-0.26106
1597.6356,483.672,-0.2609
1597.7256,483.772,-0.26117
1597.8156,483.872,-0.26216
1597.9056,483.972,-0.26303
1597.9956,484.072,-0.26318
1598.085,484.172,-0.26301
1598.175,484.272,-0.26312
1598.2644,484.372,-0.26367
1598.3544,484.472,-0.26461
1598.4444,484.572,-0.26561
1598.5344,484.672,-0.26609
1598.6244,484.772,-0.26601
1598.7144,484.872,-0.26604
1598.8038,484.972,-0.26654
1598.8938,485.072,-0.26699
1598.9838,485.172,-0.26693
1599.0732,485.272,-0.26689
1599.1632,485.372,-0.26758
1599.2526,485.472,-0.26864
1599.3426,485.572,-0.26909
1599.432,485.672,-0.26892
1599.522,485.772,-0.26915
1599.6126,485.872,-0.27015
1599.702,485.972,-0.27101
1599.792,486.072,-0.27102
1599.8814,486.172,-0.27093
1599.9708,486.272,-0.27164
1600.0602,486.372,-0.2727
1600.1502,486.472,-0.2731
1600.2396,486.572,-0.27292
1600.3296,486.672,-0.2732
1600.419,486.772,-0.27421
1600.5084,486.872,-0.27505
1600.5984,486.972,-0.2751
1600.6878,487.072,-0.27498
1600.7778,487.172,-0.27535
1600.8672,487.272,-0.27589
1600.9566,487.372,-0.27599
1601.0454,487.472,-0.27585
1601.1348,487.572,-0.27627
1601.2236,487.672,-0.27731
1601.313,487.772,-0.27805
1601.403,487.872,-0.27801
1601.4924,487.972,-0.27797
1601.5824,488.072,-0.27871
1601.6718,488.172,-0.27975
1601.7618,488.272,-0.28028
1601.8512,488.372,-0.28019
1601.9406,488.472,-0.27981
1602.03,488.572,-0.27934
1602.1188,488.672,-0.27892
1602.2076,488.772,-0.2787
1602.297,488.872,-0.27898
1602.3864,488.972,-0.27989
1602.4764,489.072,-0.28085
1602.5658,489.172,-0.28113
1602.6546,489.272,-0.28099
1602.744,489.372,-0.28116
1602.8328,489.472,-0.28172
1602.9222,489.572,-0.28202
1603.0116,489.672,-0.28188
1603.101,489.772,-0.28201
1603.1898,489.872,-0.2829
1603.2786,489.972,-0.28387
1603.3674,490.072,-0.28407
1603.4568,490.172,-0.28391
1603.5462,490.272,-0.28435
1603.635,490.372,-0.2854
1603.7244,490.472,-0.28611
1603.8132,490.572,-0.28608
1603.902,490.672,-0.286
1603.9908,490.772,-0.28642
1604.0802,490.872,-0.28693
1604.169,490.972,-0.28704
1604.2572,491.072,-0.28695
1604.3466,491.172,-0.2872
1604.4354,491.272,-0.28775
1604.5248,491.372,-0.28802
1604.6136,491.472,-0.28787
1604.7024,491.572,-0.28802
1604.7912,491.672,-0.28892
1604.88,491.772,-0.28988
1604.9688,491.872,-0.29007
1605.057,491.972,-0.28991
1605.1458,492.072,-0.29035
1605.2346,492.172,-0.2914
1605.3234,492.272,-0.2921
1605.4116,492.372,-0.29206
1605.5004,492.472,-0.292
1605.5886,492.572,-0.29249
1605.6768,492.672,-0.29298
1605.7662,492.772,-0.29274
1605.855,492.872,-0.29214
1605.9438,492.972,-0.29209
1606.0326,493.072,-0.29265
1606.1214,493.172,-0.29303
1606.2102,493.272,-0.29292
1606.299,493.372,-0.293
1606.3878,493.472,-0.2938
1606.4766,493.572,-0.29481
1606.5648,493.672,-0.29526
1606.653,493.772,-0.29515
1606.7418,493.872,-0.29488
1606.8306,493.972,-0.29478
1606.9188,494.072,-0.29513
1607.0076,494.172,-0.29599
1607.0958,494.272,-0.29696
1607.1846,494.372,-0.29764
1607.2728,494.472,-0.29797
1607.3616,494.572,-0.29797
1607.4504,494.672,-0.29791
1607.5386,494.772,-0.29817
1607.6268,494.872,-0.29871
1607.715,494.972,-0.29901
1607.8038,495.072,-0.29887
1607.892,495.172,-0.29895
1607.9808,495.272,-0.29982
1608.0696,495.372,-0.30082
1608.1578,495.472,-0.30097
1608.2466,495.572,-0.30038
1608.3348,495.672,-0.29984
1608.423,495.772,-0.29975
1608.5118,495.872,-0.30006
1608.6,495.972,-0.30057
1608.6888,496.072,-0.30097
1608.777,496.172,-0.301
1608.8652,496.272,-0.30094
1608.9534,496.372,-0.30124
1609.0416,496.472,-0.30178
1609.1298,496.572,-0.30202
1609.2186,496.672,-0.30188
1609.3068,496.772,-0.30204
1609.395,496.872,-0.30291
1609.4826,496.972,-0.30387
1609.5708,497.072,-0.30421
1609.659,497.172,-0.30408
1609.7472,497.272,-0.30398
1609.8348,497.372,-0.30402
1609.9224,497.472,-0.30396
1610.01,497.572,-0.3038
1610.0982,497.672,-0.30399
1610.1864,497.772,-0.30486
1610.274,497.872,-0.30582
1610.3622,497.972,-0.30615
1610.4504,498.072,-0.30602
1610.5386,498.172,-0.3061
1610.6268,498.272,-0.30657
1610.7144,498.372,-0.30707
1610.8026,498.472,-0.30727
1610.8908,498.572,-0.30705
1610.9784,498.672,-0.30642
1611.0654,498.772,-0.30596
1611.153,498.872,-0.30639
1611.2406,498.972,-0.30744
1611.3282,499.072,-0.30812
1611.4158,499.172,-0.30808
1611.504,499.272,-0.30801
1611.5922,499.372,-0.30841
1611.6798,499.472,-0.30893
1611.7674,499.572,-0.30905
1611.855,499.672,-0.30896
1611.9426,499.772,-0.30915
1612.0308,499.872,-0.30965
1612.1184,499.972,-0.31006
1612.206,500.072,-0.31013
1612.293,500.172,-0.31001
1612.3806,500.272,-0.30988
1612.4688,500.372,-0.30992
1612.5564,500.472,-0.31025
1612.644,500.572,-0.31075
1612.731,500.672,-0.31108
1612.8192,500.772,-0.31111
1612.9068,500.872,-0.31099
1612.9944,500.972,-0.31088
1613.082,501.072,-0.31095
1613.169,501.172,-0.31132
1613.256,501.272,-0.31181
1613.3436,501.372,-0.3121
1613.4312,501.472,-0.3121
1613.5188,501.572,-0.31197
1613.6064,501.672,-0.31187
1613.694,501.772,-0.31198
1613.7816,501.872,-0.31239
1613.8686,501.972,-0.31287
1613.9562,502.072,-0.31311
1614.0432,502.172,-0.31308
1614.1302,502.272,-0.31295
1614.2178,502.372,-0.31288
1614.3054,502.472,-0.31302
1614.3924,502.572,-0.31342
1614.48,502.672,-0.31391
1614.567,502.772,-0.31422
1614.654,502.872,-0.31419
1614.7416,502.972,-0.31372
1614.8286,503.072,-0.3131
1614.9162,503.172,-0.31308
1615.0038,503.272,-0.31395
1615.0908,503.372,-0.31493
1615.1784,503.472,-0.31524
1615.266,503.572,-0.31508
1615.353,503.672,-0.31494
1615.4394,503.772,-0.31496
1615.5264,503.872,-0.31501
1615.6134,503.972,-0.31502
1615.7004,504.072,-0.315
1615.788,504.172,-0.31498
1615.875,504.272,-0.31499
1615.962,504.372,-0.31503
1616.049,504.472,-0.31505
1616.136,504.572,-0.31493
1616.2236,504.672,-0.3148
1616.3106,504.772,-0.31507
1616.3982,504.872,-0.31592
1616.4852,504.972,-0.31687
1616.5722,505.072,-0.31739
1616.6598,505.172,-0.31728
1616.7468,505.272,-0.3165
1616.8338,505.372,-0.31546
1616.9208,505.472,-0.31498
1617.0072,505.572,-0.31537
1617.0942,505.672,-0.31597
1617.1812,505.772,-0.31615
1617.2676,505.872,-0.31604
1617.3546,505.972,-0.31599
1617.4416,506.072,-0.31603
1617.5286,506.172,-0.31595
1617.6156,506.272,-0.3158
1617.7026,506.372,-0.31602
1617.7896,506.472,-0.31687
1617.8766,506.572,-0.31782
1617.9642,506.672,-0.31821
1618.0512,506.772,-0.3181
1618.1388,506.872,-0.31795
1618.2252,506.972,-0.31796
1618.3122,507.072,-0.31801
1618.3986,507.172,-0.31802
1618.485,507.272,-0.318
1618.572,507.372,-0.31798
1618.659,507.472,-0.31799
1618.7454,507.572,-0.31803
1618.8318,507.672,-0.31806
1618.9182,507.772,-0.31797
1619.0046,507.872,-0.3178
1619.091,507.972,-0.31795
1619.1774,508.072,-0.31873
1619.2638,508.172,-0.3197
1619.3502,508.272,-0.32021
1619.4366,508.372,-0.32016
1619.5236,508.472,-0.31994
1619.61,508.572,-0.31984
1619.697,508.672,-0.31999
1619.7834,508.772,-0.32042
1619.8698,508.872,-0.32089
1619.9562,508.972,-0.32109
1620.0426,509.072,-0.32105
1620.129,509.172,-0.32099
1620.2148,509.272,-0.321
1620.3006,509.372,-0.321
1620.387,509.472,-0.32093
1620.4728,509.572,-0.32094
1620.5586,509.672,-0.32123
1620.645,509.772,-0.3217
1620.7308,509.872,-0.32213
1620.8166,509.972,-0.3223
1620.903,510.072,-0.32198
1620.9894,510.172,-0.32112
1621.0758,510.272,-0.3202
1621.1616,510.372,-0.31973
1621.248,510.472,-0.31979
1621.3344,510.572,-0.32018
1621.4208,510.672,-0.32067
1621.5072,510.772,-0.32102
1621.5936,510.872,-0.32108
1621.6794,510.972,-0.32101
1621.7658,511.072,-0.32101
1621.8516,511.172,-0.32104
1621.9374,511.272,-0.32093
1622.0232,511.372,-0.3208
1622.1096,511.472,-0.32106
1622.1954,511.572,-0.32192
1622.2812,511.672,-0.32285
1622.367,511.772,-0.32329
1622.4534,511.872,-0.32319
1622.5398,511.972,-0.32279
1622.6262,512.072,-0.3223
1622.7126,512.172,-0.32197
1622.7984,512.272,-0.32191
1622.8848,512.372,-0.32199
1622.9712,512.472,-0.32203
1623.0576,512.572,-0.32201
1623.144,512.672,-0.32199
1623.2298,512.772,-0.32198
1623.3162,512.872,-0.32201
1623.4026,512.972,-0.32206
1623.489,513.072,-0.32202
1623.5748,513.172,-0.32184
1623.6606,513.272,-0.32183
1623.7458,513.372,-0.32239
1623.8316,513.472,-0.32338
1623.9174,513.572,-0.32409
1624.0032,513.672,-0.32417
1624.089,513.772,-0.32401
1624.1754,513.872,-0.32402
1624.2612,513.972,-0.32406
1624.3476,514.072,-0.32382
1624.4334,514.172,-0.32334
1624.5192,514.272,-0.32293
1624.605,514.372,-0.32279
1624.6908,514.472,-0.32296
1624.7766,514.572,-0.3234
1624.863,514.672,-0.32386
1624.9482,514.772,-0.32409
1625.034,514.872,-0.32406
1625.1192,514.972,-0.32399
1625.205,515.072,-0.324
1625.2908,515.172,-0.32401
1625.376,515.272,-0.32393
1625.4618,515.372,-0.32392
1625.547,515.472,-0.3242
1625.6322,515.572,-0.32469
1625.718,515.672,-0.32505
1625.8032,515.772,-0.3251
1625.889,515.872,-0.32501
1625.9742,515.972,-0.32497
1626.06,516.072,-0.32499
1626.1458,516.172,-0.32501
1626.231,516.272,-0.32501
1626.3168,516.372,-0.325
1626.4026,516.472,-0.325
1626.4884,516.572,-0.325
1626.5736,516.672,-0.325
1626.6594,516.772,-0.325
1626.7446,516.872,-0.32499
1626.8298,516.972,-0.32498
1626.915,517.072,-0.32501
1627.0002,517.172,-0.32505
1627.0854,517.272,-0.32502
1627.1706,517.372,-0.32485
1627.2558,517.472,-0.32482
1627.341,517.572,-0.32534
1627.4262,517.672,-0.32631
1627.5114,517.772,-0.32707
1627.5972,517.872,-0.32721
1627.683,517.972,-0.32704
1627.7682,518.072,-0.32692
1627.8534,518.172,-0.32695
1627.9386,518.272,-0.32705
1628.0244,518.372,-0.32712
1628.1096,518.472,-0.32697
1628.1948,518.572,-0.32653
1628.28,518.672,-0.32607
1628.3652,518.772,-0.3259
1628.4504,518.872,-0.32595
1628.5356,518.972,-0.32602
1628.6208,519.072,-0.32601
1628.706,519.172,-0.326
1628.7912,519.272,-0.32604
1628.8764,519.372,-0.32603
1628.9616,519.472,-0.32587
1629.0462,519.572,-0.32581
1629.1308,519.672,-0.32624
1629.216,519.772,-0.32716
1629.3006,519.872,-0.328
1629.3858,519.972,-0.3283
1629.471,520.072,-0.32812
1629.5556,520.172,-0.32772
1629.6402,520.272,-0.32726
1629.7254,520.372,-0.32692
1629.81,520.472,-0.32682
1629.8952,520.572,-0.32698
1629.9804,520.672,-0.32741
1630.065,520.772,-0.32787
1630.1502,520.872,-0.32809
1630.2348,520.972,-0.32807
1630.32,521.072,-0.32799
1630.4046,521.172,-0.32797
1630.4898,521.272,-0.328
1630.5744,521.372,-0.32803
1630.6596,521.472,-0.32802
1630.7448,521.572,-0.32796
1630.8294,521.672,-0.32791
1630.9146,521.772,-0.32804
1630.9992,521.872,-0.32844
1631.0838,521.972,-0.32892
1631.1684,522.072,-0.32925
1631.253,522.172,-0.32924
1631.3376,522.272,-0.32867
1631.4222,522.372,-0.32772
1631.5068,522.472,-0.32696
1631.592,522.572,-0.32679
1631.6766,522.672,-0.32695
1631.7618,522.772,-0.32709
1631.8464,522.872,-0.32708
1631.931,522.972,-0.32693
1632.0162,523.072,-0.32677
1632.1008,523.172,-0.32701
1632.1854,523.272,-0.32784
1632.2706,523.372,-0.32877
1632.3558,523.472,-0.3292
1632.4404,523.572,-0.32913
1632.5256,523.672,-0.32897
1632.6102,523.772,-0.32895
1632.6948,523.872,-0.329
1632.7788,523.972,-0.32901
1632.8634,524.072,-0.329
1632.948,524.172,-0.329
1633.0326,524.272,-0.329
1633.1178,524.372,-0.329
1633.2018,524.472,-0.32899
1633.2864,524.572,-0.32899
1633.371,524.672,-0.32904
1633.4556,524.772,-0.32905
1633.5402,524.872,-0.32891
1633.6242,524.972,-0.32878
1633.7088,525.072,-0.32906
1633.7934,525.172,-0.32993
1633.8786,525.272,-0.33084
1633.9632,525.372,-0.33121
1634.0484,525.472,-0.3311
1634.1324,525.572,-0.33097
1634.217,525.672,-0.33098
1634.301,525.772,-0.331
1634.3856,525.872,-0.33092
1634.4702,525.972,-0.33093
1634.5548,526.072,-0.33124
1634.6394,526.172,-0.33173
1634.724,526.272,-0.33206
1634.8086,526.372,-0.33208
1634.8932,526.472,-0.332
1634.9772,526.572,-0.332
1635.0618,526.672,-0.33202
1635.1464,526.772,-0.33193
1635.2304,526.872,-0.33184
1635.315,526.972,-0.33208
1635.4002,527.072,-0.33269
1635.4848,527.172,-0.33303
1635.5694,527.272,-0.33249
1635.6534,527.372,-0.33148
1635.7374,527.472,-0.33077
1635.8214,527.572,-0.3307
1635.906,527.672,-0.33103
1635.99,527.772,-0.33151
1636.0746,527.872,-0.33192
1636.1586,527.972,-0.33208
1636.2432,528.072,-0.33204
1636.3278,528.172,-0.332
1636.4118,528.272,-0.33203
1636.4952,528.372,-0.33201
1636.5792,528.472,-0.33184
1636.6632,528.572,-0.33184
1636.7472,528.672,-0.33239
1636.8318,528.772,-0.33334
1636.9164,528.872,-0.3341
1637.0004,528.972,-0.3343
1637.0844,529.072,-0.33407
1637.1684,529.172,-0.33365
1637.2524,529.272,-0.3332
1637.3364,529.372,-0.33289
1637.421,529.472,-0.33282
1637.5056,529.572,-0.33302
1637.589,529.672,-0.33346
1637.6724,529.772,-0.3339
1637.7564,529.872,-0.33409
1637.8404,529.972,-0.33405
1637.9244,530.072,-0.33399
1638.0078,530.172,-0.334
1638.0912,530.272,-0.334
1638.1752,530.372,-0.33393
1638.2592,530.472,-0.33392
1638.3432,530.572,-0.33418
1638.4272,530.672,-0.33465
1638.5112,530.772,-0.33504
1638.5952,530.872,-0.33513
1638.6792,530.972,-0.33504
1638.7626,531.072,-0.3349
1638.8466,531.172,-0.33488
1638.93,531.272,-0.33512
1639.014,531.372,-0.33559
1639.098,531.472,-0.33599
1639.182,531.572,-0.3361
1639.266,531.672,-0.33603
1639.35,531.772,-0.33598
1639.434,531.872,-0.33599
1639.518,531.972,-0.336
1639.6014,532.072,-0.33599
1639.6854,532.172,-0.336
1639.7694,532.272,-0.33604
1639.8534,532.372,-0.33605
1639.9368,532.472,-0.33592
1640.0202,532.572,-0.33578
1640.1042,532.672,-0.33603
1640.1876,532.772,-0.33687
1640.2722,532.872,-0.33779
1640.3556,532.972,-0.33818
1640.4396,533.072,-0.3381
1640.523,533.172,-0.338
1640.607,533.272,-0.33808
1640.691,533.372,-0.33803
1640.775,533.472,-0.33759
1640.8584,533.572,-0.33709
1640.9418,533.672,-0.33708
1641.0252,533.772,-0.33756
1641.1086,533.872,-0.33803
1641.192,533.972,-0.33816
1641.276,534.072,-0.33805
1641.3594,534.172,-0.3379
1641.4434,534.272,-0.33788
1641.5268,534.372,-0.33811
1641.6108,534.472,-0.33856
1641.6942,534.572,-0.33898
1641.7782,534.672,-0.33915
1641.8616,534.772,-0.33908
1641.945,534.872,-0.33888
1642.0284,534.972,-0.33877
1642.1118,535.072,-0.33908
1642.1952,535.172,-0.33992
1642.2786,535.272,-0.34083
1642.362,535.372,-0.34127
1642.4454,535.472,-0.34122
1642.5288,535.572,-0.34085
1642.6122,535.672,-0.34038
1642.6956,535.772,-0.34001
1642.779,535.872,-0.33989
1642.8624,535.972,-0.33995
1642.9458,536.072,-0.34005
1643.0286,536.172,-0.34008
1643.112,536.272,-0.33997
1643.1954,536.372,-0.33979
1643.2782,536.472,-0.33988
1643.3616,536.572,-0.34058
1643.4444,536.672,-0.34155
1643.5278,536.772,-0.3421
1643.6112,536.872,-0.34205
1643.6946,536.972,-0.34199
1643.7786,537.072,-0.34239
1643.862,537.172,-0.34289
1643.9448,537.272,-0.34294
1644.0282,537.372,-0.34248
1644.1116,537.472,-0.34194
1644.1944,537.572,-0.34167
1644.2778,537.672,-0.34186
1644.3612,537.772,-0.34258
1644.444,537.872,-0.34352
1644.5274,537.972,-0.34414
1644.6108,538.072,-0.34421
1644.6942,538.172,-0.34402
1644.777,538.272,-0.34386
1644.8604,538.372,-0.34389
1644.9432,538.472,-0.34419
1645.0266,538.572,-0.34466
1645.1094,538.672,-0.34503
1645.1928,538.772,-0.3451
1645.2762,538.872,-0.34502
1645.3596,538.972,-0.34496
1645.443,539.072,-0.34497
1645.5264,539.172,-0.34502
1645.6098,539.272,-0.34506
1645.6932,539.372,-0.34501
1645.7766,539.472,-0.34483
1645.86,539.572,-0.34482
1645.9434,539.672,-0.34537
1646.0268,539.772,-0.34632
1646.1102,539.872,-0.34706
1646.1936,539.972,-0.3472
1646.2764,540.072,-0.34704
1646.3586,540.172,-0.34698
1646.442,540.272,-0.34702
1646.5248,540.372,-0.34696
1646.6076,540.472,-0.34679
1646.691,540.572,-0.34694
1646.7738,540.672,-0.34773
1646.8572,540.772,-0.34868
1646.9406,540.872,-0.34911
1647.0234,540.972,-0.34899
1647.1068,541.072,-0.34902
1647.189,541.172,-0.3496
1647.2718,541.272,-0.35004
1647.3546,541.372,-0.34956
1647.438,541.472,-0.34852
1647.5208,541.572,-0.34796
1647.6042,541.672,-0.34836
1647.687,541.772,-0.34895
1647.7704,541.872,-0.34902
1647.8532,541.972,-0.34889
1647.936,542.072,-0.34926
1648.0188,542.172,-0.35021
1648.1016,542.272,-0.35101
1648.1844,542.372,-0.35113
1648.2672,542.472,-0.35099
1648.3494,542.572,-0.35117
1648.4316,542.672,-0.35168
1648.5144,542.772,-0.35203
1648.5972,542.872,-0.352
1648.68,542.972,-0.35196
1648.7634,543.072,-0.35229
1648.8468,543.172,-0.3528
1648.9296,543.272,-0.35302
1649.0124,543.372,-0.35288
1649.0952,543.472,-0.35297
1649.178,543.572,-0.35373
1649.2608,543.672,-0.35469
1649.3436,543.772,-0.35514
1649.4264,543.872,-0.35504
1649.5092,543.972,-0.35502
1649.592,544.072,-0.35545
1649.6748,544.172,-0.35592
1649.7576,544.272,-0.356
1649.8404,544.372,-0.35587
1649.9232,544.472,-0.35615
1650.006,544.572,-0.35702
1650.0888,544.672,-0.35791
1650.1716,544.772,-0.35829
1650.2544,544.872,-0.35818
1650.3366,544.972,-0.35783
1650.4194,545.072,-0.3574
1650.5022,545.172,-0.35699
1650.585,545.272,-0.35672
1650.6672,545.372,-0.35681
1650.75,545.472,-0.35747
1650.8328,545.572,-0.35843
1650.9156,545.672,-0.35907
1650.999,545.772,-0.35908
1651.0824,545.872,-0.35898
1651.1652,545.972,-0.35928
1651.2474,546.072,-0.3598
1651.3296,546.172,-0.36002
1651.4124,546.272,-0.35988
1651.4952,546.372,-0.35997
1651.578,546.472,-0.36073
1651.6608,546.572,-0.36169
1651.743,546.672,-0.36214
1651.8258,546.772,-0.36204
1651.9086,546.872,-0.36202
1651.9908,546.972,-0.36244
1652.0736,547.072,-0.36292
1652.1558,547.172,-0.36299
1652.2386,547.272,-0.36285
1652.3208,547.372,-0.36315
1652.4042,547.472,-0.36408
1652.487,547.572,-0.36492
1652.5692,547.672,-0.36506
1652.652,547.772,-0.3649
1652.7342,547.872,-0.36525
1652.817,547.972,-0.36621
1652.8998,548.072,-0.367
1652.9826,548.172,-0.36705
1653.0648,548.272,-0.36691
1653.1476,548.372,-0.36737
1653.2304,548.472,-0.36834
1653.3126,548.572,-0.36907
1653.3954,548.672,-0.36913
1653.4776,548.772,-0.36899
1653.5598,548.872,-0.36921
1653.642,548.972,-0.36971
1653.7242,549.072,-0.37007
1653.8064,549.172,-0.3701
1653.8886,549.272,-0.37001
1653.9708,549.372,-0.37001
1654.053,549.472,-0.37004
1654.1352,549.572,-0.36993
1654.218,549.672,-0.36978
1654.3002,549.772,-0.37
1654.383,549.872,-0.37084
1654.4652,549.972,-0.37176
1654.5474,550.072,-0.37209
1654.6296,550.172,-0.37193
1654.7118,550.272,-0.37207
1654.794,550.372,-0.3729
1654.8762,550.472,-0.37382
1654.9584,550.572,-0.37416
1655.0412,550.672,-0.37404
1655.1234,550.772,-0.37405
1655.2056,550.872,-0.37446
1655.2872,550.972,-0.37494
1655.3694,551.072,-0.37516
1655.4516,551.172,-0.37511
1655.5338,551.272,-0.37491
1655.616,551.372,-0.37476
1655.6982,551.472,-0.37499
1655.7798,551.572,-0.37576
1655.862,551.672,-0.37668
1655.9442,551.772,-0.37721
1656.0264,551.872,-0.37722
1656.1086,551.972,-0.37697
1656.1914,552.072,-0.37675
1656.2736,552.172,-0.37685
1656.3564,552.272,-0.37752
1656.4386,552.372,-0.37848
1656.5208,552.472,-0.37909
1656.603,552.572,-0.37911
1656.6858,552.672,-0.379
1656.7674,552.772,-0.3792
1656.8496,552.872,-0.37967
1656.9318,552.972,-0.38019
1657.014,553.072,-0.38061
1657.0962,553.172,-0.38098
1657.1784,553.272,-0.38135
1657.2606,553.372,-0.38177
1657.3428,553.472,-0.38227
1657.425,553.572,-0.38276
1657.5072,553.672,-0.38301
1657.5894,553.772,-0.38294
1657.671,553.872,-0.38291
1657.7532,553.972,-0.38335
1657.836,554.072,-0.38422
1657.9182,554.172,-0.38521
1658.0004,554.272,-0.3861
1658.082,554.372,-0.38686
1658.1642,554.472,-0.38746
1658.247,554.572,-0.38787
1658.3292,554.672,-0.38803
1658.4108,554.772,-0.38799
1658.493,554.872,-0.38799
1658.5752,554.972,-0.38822
1658.658,555.072,-0.38868
1658.7402,555.172,-0.38935
1658.8224,555.272,-0.39016
1658.9046,555.372,-0.39105
1658.9862,555.472,-0.39195
1659.0684,555.572,-0.39274
1659.1506,555.672,-0.39334
1659.2328,555.772,-0.39374
1659.315,555.872,-0.39406
1659.3972,555.972,-0.3944
1659.4794,556.072,-0.39486
1659.561,556.172,-0.3955
1659.6432,556.272,-0.39634
1659.7248,556.372,-0.3973
1659.807,556.472,-0.39827
1659.8892,556.572,-0.39895
1659.9708,556.672,-0.39912
1660.053,556.772,-0.39902
1660.1352,556.872,-0.39905
1660.2174,556.972,-0.3994
1660.299,557.072,-0.39999
1660.3812,557.172,-0.40073
1660.4628,557.272,-0.40159
1660.545,557.372,-0.40251
1660.6266,557.472,-0.40339
1660.7088,557.572,-0.40405
1660.7904,557.672,-0.40443
1660.872,557.772,-0.40481
1660.9542,557.872,-0.40551
1661.0364,557.972,-0.40642
1661.1186,558.072,-0.40712
1661.2002,558.172,-0.40745
1661.2824,558.272,-0.40785
1661.364,558.372,-0.40873
1661.4456,558.472,-0.40969
1661.5272,558.572,-0.40998
1661.6088,558.672,-0.40947
1661.691,558.772,-0.40901
1661.7726,558.872,-0.40937
1661.8548,558.972,-0.41037
1661.9364,559.072,-0.41147
1662.0174,559.172,-0.41236
1662.099,559.272,-0.413
1662.1812,559.372,-0.41337
1662.2634,559.472,-0.41375
1662.345,559.572,-0.41441
1662.4272,559.672,-0.4153
1662.5088,559.772,-0.41607
1662.591,559.872,-0.4165
1662.6732,559.972,-0.41685
1662.7548,560.072,-0.41743
1662.837,560.172,-0.41827
1662.9186,560.272,-0.41922
1663.0002,560.372,-0.42013
1663.0818,560.472,-0.42087
1663.164,560.572,-0.42135
1663.2456,560.672,-0.4217
1663.3278,560.772,-0.4222
1663.4094,560.872,-0.42297
1663.491,560.972,-0.42389
1663.5726,561.072,-0.42485
1663.6542,561.172,-0.42567
1663.7358,561.272,-0.42618
1663.8174,561.372,-0.42648
1663.899,561.472,-0.42699
1663.9812,561.572,-0.42796
1664.0628,561.672,-0.42884
1664.1444,561.772,-0.42891
1664.226,561.872,-0.42833
1664.3076,561.972,-0.42801
1664.3892,562.072,-0.42855
1664.4708,562.172,-0.4296
1664.5524,562.272,-0.43064
1664.634,562.372,-0.43148
1664.7162,562.472,-0.43211
1664.7978,562.572,-0.43258
1664.88,562.672,-0.43293
1664.9616,562.772,-0.43322
1665.0432,562.872,-0.4336
1665.1242,562.972,-0.43422
1665.2058,563.072,-0.43509
1665.2868,563.172,-0.4359
1665.3684,563.272,-0.43637
1665.45,563.372,-0.4367
1665.5316,563.472,-0.43727
1665.6126,563.572,-0.43815
1665.6942,563.672,-0.43896
1665.7758,563.772,-0.43941
1665.8574,563.872,-0.43974
1665.9384,563.972,-0.44034
1666.02,564.072,-0.44122
1666.1016,564.172,-0.44201
1666.1832,564.272,-0.44244
1666.2642,564.372,-0.44277
1666.3458,564.472,-0.44341
1666.4268,564.572,-0.4443
1666.5078,564.672,-0.44506
1666.5894,564.772,-0.44545
1666.671,564.872,-0.44581
1666.7526,564.972,-0.44649
1666.8342,565.072,-0.4474
1666.9158,565.172,-0.4481
1666.9974,565.272,-0.4484
1667.0784,565.372,-0.44881
1667.16,565.472,-0.44977
1667.2422,565.572,-0.4508
1667.3238,565.672,-0.45087
1667.4048,565.772,-0.44983
1667.4864,565.872,-0.44901
1667.568,565.972,-0.44963
1667.649,566.072,-0.45115
1667.7306,566.172,-0.45233
1667.8122,566.272,-0.45271
1667.8944,566.372,-0.45297
1667.9754,566.472,-0.45368
1668.057,566.572,-0.4546
1668.1386,566.672,-0.45524
1668.2202,566.772,-0.45556
1668.3018,566.872,-0.45601
1668.3834,566.972,-0.4569
1668.465,567.072,-0.45777
1668.5466,567.172,-0.45808
1668.6282,567.272,-0.45795
1668.7098,567.372,-0.45805
1668.7914,567.472,-0.45879
1668.873,567.572,-0.45974
1668.9552,567.672,-0.46037
1669.0368,567.772,-0.4607
1669.1184,567.872,-0.46112
1669.2,567.972,-0.46186
1669.281,568.072,-0.46278
1669.3626,568.172,-0.46371
1669.4436,568.272,-0.46454
1669.5252,568.372,-0.46517
1669.6068,568.472,-0.46559
1669.6878,568.572,-0.46595
1669.7694,568.672,-0.46635
1669.851,568.772,-0.46677
1669.932,568.872,-0.46713
1670.013,568.972,-0.46746
1670.0946,569.072,-0.46795
1670.1756,569.172,-0.46875
1670.2572,569.272,-0.46962
1670.3388,569.372,-0.47025
1670.4198,569.472,-0.47061
1670.5008,569.572,-0.47101
1670.5824,569.672,-0.47168
1670.6634,569.772,-0.47257
1670.745,569.872,-0.47352
1670.826,569.972,-0.4744
1670.9076,570.072,-0.47505
1670.9886,570.172,-0.47543
1671.0696,570.272,-0.4758
1671.1506,570.372,-0.47645
1671.2322,570.472,-0.47733
1671.3132,570.572,-0.47811
1671.3948,570.672,-0.4786
1671.4758,570.772,-0.47892
1671.5568,570.872,-0.47921
1671.6384,570.972,-0.4796
1671.7194,571.072,-0.48015
1671.8004,571.172,-0.48091
1671.8814,571.272,-0.48179
1671.963,571.372,-0.48272
1672.044,571.472,-0.48355
1672.125,571.572,-0.48415
1672.206,571.672,-0.48452
1672.287,571.772,-0.48492
1672.368,571.872,-0.48557
1672.449,571.972,-0.48643
1672.5306,572.072,-0.48734
1672.6116,572.172,-0.48819
1672.6932,572.272,-0.48894
1672.7742,572.372,-0.48954
1672.8552,572.472,-0.48992
1672.9362,572.572,-0.48999
1673.0172,572.672,-0.48989
1673.0988,572.772,-0.48999
1673.1798,572.872,-0.49059
1673.2614,572.972,-0.49152
1673.343,573.072,-0.49251
1673.424,573.172,-0.49338
1673.505,573.272,-0.49403
1673.586,573.372,-0.49443
1673.6676,573.472,-0.4948
1673.7486,573.572,-0.49539
1673.8302,573.672,-0.49623
1673.9112,573.772,-0.49712
1673.9922,573.872,-0.49796
1674.0732,573.972,-0.49875
1674.1548,574.072,-0.49952
1674.2364,574.172,-0.50033
1674.3174,574.272,-0.50119
1674.3984,574.372,-0.50209
1674.4794,574.472,-0.50285
1674.5604,574.572,-0.50333
1674.642,574.672,-0.50368
1674.723,574.772,-0.50417
1674.804,574.872,-0.50495
1674.885,574.972,-0.50584
1674.966,575.072,-0.50668
1675.047,575.172,-0.50747
1675.1274,575.272,-0.50828
1675.2084,575.372,-0.50913
1675.2894,575.472,-0.50991
1675.3704,575.572,-0.51053
1675.4508,575.672,-0.51091
1675.5318,575.772,-0.51099
1675.6128,575.872,-0.51088
1675.6938,575.972,-0.51097
1675.7748,576.072,-0.51156
1675.8558,576.172,-0.51248
1675.9368,576.272,-0.5134
1676.0178,576.372,-0.51422
1676.0988,576.472,-0.51499
1676.1798,576.572,-0.51579
1676.2602,576.672,-0.51661
1676.3412,576.772,-0.5174
1676.4222,576.872,-0.51819
1676.5026,576.972,-0.51903
1676.5836,577.072,-0.51993
1676.6646,577.172,-0.52073
1676.7456,577.272,-0.52126
1676.8266,577.372,-0.52161
1676.907,577.472,-0.52205
1676.9874,577.572,-0.52277
1677.0678,577.672,-0.52365
1677.1488,577.772,-0.52451
1677.2298,577.872,-0.52532
1677.3108,577.972,-0.5261
1677.3918,578.072,-0.52691
1677.4722,578.172,-0.52772
1677.5532,578.272,-0.52853
1677.6342,578.372,-0.52934
1677.7152,578.472,-0.53015
1677.7962,578.572,-0.53097
1677.8772,578.672,-0.53177
1677.9576,578.772,-0.53256
1678.0386,578.872,-0.53336
1678.1196,578.972,-0.53422
1678.2006,579.072,-0.53512
1678.2816,579.172,-0.53587
1678.3626,579.272,-0.53631
1678.4436,579.372,-0.53663
1678.5246,579.472,-0.53723
1678.605,579.572,-0.53816
1678.686,579.672,-0.53892
1678.7664,579.772,-0.53909
1678.8474,579.872,-0.53896
1678.9278,579.972,-0.53912
1679.0082,580.072,-0.53983
1679.0892,580.172,-0.54085
1679.1702,580.272,-0.54191
1679.2512,580.372,-0.54273
1679.3316,580.472,-0.54306
1679.4126,580.572,-0.54297
1679.4936,580.672,-0.54298
1679.5746,580.772,-0.54351
1679.6556,580.872,-0.54443
1679.7366,580.972,-0.54545
1679.817,581.072,-0.54633
1679.898,581.172,-0.54699
1679.9784,581.272,-0.54737
1680.0594,581.372,-0.54773
1680.1398,581.472,-0.54837
1680.2208,581.572,-0.54926
1680.3012,581.672,-0.55001
1680.3816,581.772,-0.55036
1680.4626,581.872,-0.5507
1680.543,581.972,-0.55152
1680.624,582.072,-0.5528
1680.7044,582.172,-0.55406
1680.7854,582.272,-0.55496
1680.8658,582.372,-0.55567
1680.9462,582.472,-0.55649
1681.026,582.572,-0.55738
1681.1064,582.672,-0.55804
1681.1874,582.772,-0.55834
1681.2678,582.872,-0.55871
1681.3488,582.972,-0.55965
1681.4298,583.072,-0.561
1681.5108,583.172,-0.56211
1681.5918,583.272,-0.5626
1681.6722,583.372,-0.56286
1681.7526,583.472,-0.56339
1681.8336,583.572,-0.56424
1681.914,583.672,-0.56515
1681.9944,583.772,-0.56598
1682.0754,583.872,-0.56676
1682.1558,583.972,-0.56755
1682.2368,584.072,-0.56836
1682.3178,584.172,-0.56918
1682.3982,584.272,-0.56999
1682.4792,584.372,-0.57079
1682.5596,584.472,-0.5716
1682.64,584.572,-0.57241
1682.7204,584.672,-0.5732
1682.8014,584.772,-0.57399
1682.883,584.872,-0.57481
1682.9634,584.972,-0.57571
1683.0444,585.072,-0.57655
1683.1254,585.172,-0.57716
1683.2064,585.272,-0.57752
1683.2874,585.372,-0.57791
1683.3684,585.472,-0.5786
1683.4494,585.572,-0.57946
1683.5298,585.672,-0.58029
1683.6108,585.772,-0.58103
1683.6912,585.872,-0.58189
1683.7722,585.972,-0.58305
1683.8526,586.072,-0.58432
1683.933,586.172,-0.58541
1684.0134,586.272,-0.58623
1684.0938,586.372,-0.58694
1684.1742,586.472,-0.58771
1684.2546,586.572,-0.58854
1684.3356,586.672,-0.58936
1684.416,586.772,-0.59017
1684.4964,586.872,-0.59096
1684.5768,586.972,-0.59177
1684.6572,587.072,-0.59257
1684.7376,587.172,-0.59338
1684.818,587.272,-0.59418
1684.8984,587.372,-0.59499
1684.9788,587.472,-0.59578
1685.0598,587.572,-0.59659
1685.1402,587.672,-0.59742
1685.2212,587.772,-0.59824
1685.3022,587.872,-0.59902
1685.3832,587.972,-0.59974
1685.4636,588.072,-0.60055
1685.5434,588.172,-0.60162
1685.6238,588.272,-0.60288
1685.7048,588.372,-0.60406
1685.7852,588.472,-0.60496
1685.8656,588.572,-0.60569
1685.9466,588.672,-0.60644
1686.027,588.772,-0.60725
1686.1074,588.872,-0.60807
1686.1878,588.972,-0.60889
1686.2682,589.072,-0.60969
1686.3492,589.172,-0.61049
1686.4296,589.272,-0.61129
1686.51,589.372,-0.6121
1686.591,589.472,-0.61293
1686.672,589.572,-0.61373
1686.7524,589.672,-0.61448
1686.8334,589.772,-0.61525
1686.9138,589.872,-0.61617
1686.9942,589.972,-0.61731
1687.0746,590.072,-0.61859
1687.155,590.172,-0.6199
1687.236,590.272,-0.62113
1687.3164,590.372,-0.6222
1687.3968,590.472,-0.62305
1687.4772,590.572,-0.62379
1687.5582,590.672,-0.62455
1687.6386,590.772,-0.62536
1687.719,590.872,-0.6262
1687.7988,590.972,-0.62702
1687.8792,591.072,-0.62781
1687.9596,591.172,-0.62853
1688.0406,591.272,-0.62929
1688.121,591.372,-0.63029
1688.2014,591.472,-0.63155
1688.2812,591.572,-0.63276
1688.3616,591.672,-0.63365
1688.442,591.772,-0.63437
1688.5224,591.872,-0.6353
1688.6028,591.972,-0.63654
1688.6832,592.072,-0.63778
1688.7636,592.172,-0.63868
1688.8434,592.272,-0.63941
1688.9238,592.372,-0.64031
1689.0048,592.472,-0.64151
1689.0852,592.572,-0.64278
1689.1656,592.672,-0.64386
1689.246,592.772,-0.64464
1689.3264,592.872,-0.64513
1689.4068,592.972,-0.64542
1689.4866,593.072,-0.64588
1689.5676,593.172,-0.64681
1689.648,593.272,-0.6481
1689.729,593.372,-0.64949
1689.8094,593.472,-0.65079
1689.8898,593.572,-0.65188
1689.9702,593.672,-0.65271
1690.0506,593.772,-0.65347
1690.131,593.872,-0.6544
1690.2114,593.972,-0.65559
1690.2918,594.072,-0.65687
1690.3722,594.172,-0.65809
1690.4526,594.272,-0.65927
1690.533,594.372,-0.66052
1690.6134,594.472,-0.6618
1690.6938,594.572,-0.66292
1690.7742,594.672,-0.66376
1690.8546,594.772,-0.66451
1690.9344,594.872,-0.66544
1691.0148,594.972,-0.66664
1691.0952,595.072,-0.66793
1691.1756,595.172,-0.66913
1691.2554,595.272,-0.67032
1691.3358,595.372,-0.67158
1691.4168,595.472,-0.67288
1691.4972,595.572,-0.67397
1691.5776,595.672,-0.67471
1691.6574,595.772,-0.67545
1691.7378,595.872,-0.67665
1691.8182,595.972,-0.67832
1691.8986,596.072,-0.67997
1691.979,596.172,-0.68125
1692.0594,596.272,-0.68237
1692.1398,596.372,-0.68371
1692.2202,596.472,-0.68513
1692.3006,596.572,-0.686
1692.381,596.672,-0.68597
1692.4614,596.772,-0.68581
1692.5418,596.872,-0.68653
1692.6222,596.972,-0.68822
1692.7026,597.072,-0.69006
1692.783,597.172,-0.69144
1692.8634,597.272,-0.69252
1692.9438,597.372,-0.69363
1693.0242,597.472,-0.69486
1693.1046,597.572,-0.69607
1693.185,597.672,-0.6972
1693.2654,597.772,-0.6984
1693.3458,597.872,-0.69988
1693.4262,597.972,-0.70155
1693.5066,598.072,-0.70312
1693.587,598.172,-0.70438
1693.668,598.272,-0.70552
1693.7478,598.372,-0.70676
1693.8282,598.472,-0.70804
1693.9086,598.572,-0.70909
1693.989,598.672,-0.70981
1694.0694,598.772,-0.71058
1694.1498,598.872,-0.71188
1694.2302,598.972,-0.71359
1694.3106,599.072,-0.71519
1694.391,599.172,-0.7164
1694.4708,599.272,-0.71753
1694.5512,599.372,-0.71897
1694.6316,599.472,-0.72066
1694.712,599.572,-0.7222
1694.7924,599.672,-0.72339
1694.8728,599.772,-0.72455
1694.9526,599.872,-0.72601
1695.033,599.972,-0.7277
1695.1128,600.072,-0.72922
1695.1926,600.172,-0.73038
1695.273,600.272,-0.73153
1695.3528,600.372,-0.73307
1695.4332,600.472,-0.73481
1695.5136,600.572,-0.73619
1695.594,600.672,-0.73698
1695.6744,600.772,-0.73769
1695.7548,600.872,-0.73889
1695.8346,600.972,-0.74056
1695.915,601.072,-0.74232
1695.9954,601.172,-0.74395
1696.0758,601.272,-0.74552
1696.1562,601.372,-0.74716
1696.236,601.472,-0.74881
1696.3164,601.572,-0.75028
1696.3968,601.672,-0.75149
1696.4772,601.772,-0.75265
1696.5576,601.872,-0.75397
1696.6374,601.972,-0.75555
1696.7178,602.072,-0.75744
1696.7976,602.172,-0.75954
1696.878,602.272,-0.76152
1696.9584,602.372,-0.76306
1697.0382,602.472,-0.76421
1697.1186,602.572,-0.76524
1697.1984,602.672,-0.76635
1697.2788,602.772,-0.76763
1697.3592,602.872,-0.76911
1697.439,602.972,-0.77073
1697.5188,603.072,-0.77238
1697.5986,603.172,-0.77398
1697.6784,603.272,-0.77557
1697.7588,603.372,-0.77719
1697.8392,603.472,-0.77881
1697.919,603.572,-0.78036
1697.9994,603.672,-0.78186
1698.0792,603.772,-0.78351
1698.159,603.872,-0.78552
1698.2394,603.972,-0.78762
1698.3198,604.072,-0.78937
1698.4002,604.172,-0.7906
1698.4806,604.272,-0.79169
1698.5604,604.372,-0.79309
1698.6402,604.472,-0.79475
1698.72,604.572,-0.7964
1698.8004,604.672,-0.79795
1698.8808,604.772,-0.79958
1698.9612,604.872,-0.80149
1699.0416,604.972,-0.80356
1699.1214,605.072,-0.80549
1699.2018,605.172,-0.80715
1699.2828,605.272,-0.80867
1699.3632,605.372,-0.81023
1699.443,605.472,-0.81184
1699.5234,605.572,-0.81348
1699.6038,605.672,-0.81511
1699.6842,605.772,-0.8167
1699.7646,605.872,-0.81822
1699.845,605.972,-0.8198
1699.9254,606.072,-0.8216
1700.0052,606.172,-0.82363
1700.0856,606.272,-0.82566
1700.166,606.372,-0.82744
1700.2464,606.472,-0.82901
1700.3268,606.572,-0.83049
1700.4072,606.672,-0.83202
1700.487,606.772,-0.83371
1700.5674,606.872,-0.83562
1700.6478,606.972,-0.83767
1700.7282,607.072,-0.83969
1700.8086,607.172,-0.84164
1700.889,607.272,-0.8437
1700.9688,607.372,-0.84594
1701.0492,607.472,-0.84802
1701.129,607.572,-0.84939
1701.2094,607.672,-0.85007
1701.2898,607.772,-0.85085
1701.3702,607.872,-0.85243
1701.45,607.972,-0.8546
1701.5304,608.072,-0.85681
1701.6108,608.172,-0.85882
1701.6918,608.272,-0.86079
1701.7716,608.372,-0.86287
1701.852,608.472,-0.86491
1701.9318,608.572,-0.86664
1702.0122,608.672,-0.86812
1702.092,608.772,-0.8698
1702.1718,608.872,-0.87204
1702.2522,608.972,-0.87455
1702.332,609.072,-0.87688
1702.4124,609.172,-0.87887
1702.4928,609.272,-0.88082
1702.5732,609.372,-0.88294
1702.6542,609.472,-0.885
1702.7346,609.572,-0.88663
1702.815,609.672,-0.88799
1702.8954,609.772,-0.88986
1702.9758,609.872,-0.8927
1703.0562,609.972,-0.8953
1703.136,610.072,-0.89601
1703.2164,610.172,-0.89527
1703.2968,610.272,-0.8959
1703.3772,610.372,-0.89991
1703.457,610.472,-0.90502
1703.5374,610.572,-0.90785
1703.6178,610.672,-0.90775
1703.6982,610.772,-0.90701
1703.7786,610.872,-0.90763
1703.859,610.972,-0.90963
1703.9394,611.072,-0.91248
1704.0198,611.172,-0.91553
1704.1002,611.272,-0.91801
1704.1806,611.372,-0.91942
1704.261,611.472,-0.92041
1704.3414,611.572,-0.92184
1704.4218,611.672,-0.92389
1704.5022,611.772,-0.92605
1704.582,611.872,-0.92797
1704.6624,611.972,-0.92993
1704.7428,612.072,-0.93236
1704.8232,612.172,-0.93524
1704.9036,612.272,-0.93813
1704.984,612.372,-0.94072
1705.0644,612.472,-0.94302
1705.1442,612.572,-0.94517
1705.224,612.672,-0.94719
1705.3044,612.772,-0.9491
1705.3848,612.872,-0.95094
1705.4646,612.972,-0.95297
1705.545,613.072,-0.95548
1705.6254,613.172,-0.95835
1705.7052,613.272,-0.96118
1705.7856,613.372,-0.96367
1705.866,613.472,-0.966
1705.9464,613.572,-0.96842
1706.0262,613.672,-0.9709
1706.1066,613.772,-0.97317
1706.187,613.872,-0.97512
1706.2668,613.972,-0.97709
1706.3472,614.072,-0.97947
1706.427,614.172,-0.9823
1706.5074,614.272,-0.98528
1706.5878,614.372,-0.98817
1706.6676,614.472,-0.99093
1706.7474,614.572,-0.99352
1706.8272,614.672,-0.99594
1706.907,614.772,-0.99819
1706.9874,614.872,-1.00029
1707.0678,614.972,-1.00224
1707.1482,615.072,-1.00409
1707.228,615.172,-1.006
1707.3084,615.272,-1.00826
1707.3882,615.372,-1.01099
1707.468,615.472,-1.01388
1707.5478,615.572,-1.01656
1707.6282,615.672,-1.01896
1707.7086,615.772,-1.02124
1707.789,615.872,-1.02356
1707.8688,615.972,-1.02601
1707.9492,616.072,-1.02865
1708.029,616.172,-1.03146
1708.1094,616.272,-1.03434
1708.1898,616.372,-1.03719
1708.2702,616.472,-1.03998
1708.35,616.572,-1.04265
1708.4298,616.672,-1.04512
1708.5102,616.772,-1.04725
1708.5906,616.872,-1.04908
1708.671,616.972,-1.05111
1708.7514,617.072,-1.05386
1708.8318,617.172,-1.05719
1708.9122,617.272,-1.06048
1708.9926,617.372,-1.06336
1709.0724,617.472,-1.06607
1709.1528,617.572,-1.06888
1709.2338,617.672,-1.07175
1709.3142,617.772,-1.07444
1709.3946,617.872,-1.07685
1709.475,617.972,-1.07921
1709.5548,618.072,-1.08183
1709.6352,618.172,-1.08468
1709.7156,618.272,-1.08755
1709.796,618.372,-1.09034
1709.8764,618.472,-1.09315
1709.9568,618.572,-1.09607
1710.0372,618.672,-1.09896
1710.1176,618.772,-1.10152
1710.198,618.872,-1.10376
1710.2784,618.972,-1.10622
1710.3588,619.072,-1.10947
1710.4392,619.172,-1.11324
1710.5196,619.272,-1.11683
1710.6,619.372,-1.11982
1710.6804,619.472,-1.12241
1710.7614,619.572,-1.12484
1710.8418,619.672,-1.12724
1710.9222,619.772,-1.12968
1711.0026,619.872,-1.1323
1711.083,619.972,-1.13531
1711.164,620.072,-1.13886
1711.2444,620.172,-1.1426
1711.3248,620.272,-1.14594
1711.4052,620.372,-1.14871
1711.4856,620.472,-1.15146
1711.566,620.572,-1.15469
1711.6464,620.672,-1.15804
1711.7268,620.772,-1.16082
1711.8072,620.872,-1.16299
1711.8876,620.972,-1.1655
1711.968,621.072,-1.16918
1712.0484,621.172,-1.17347
1712.1288,621.272,-1.17725
1712.2092,621.372,-1.18011
1712.2896,621.472,-1.18266
1712.37,621.572,-1.18543
1712.451,621.672,-1.18833
1712.532,621.772,-1.19101
1712.6124,621.872,-1.19357
1712.6928,621.972,-1.19667
1712.7732,622.072,-1.20076
1712.8536,622.172,-1.20499
1712.9334,622.272,-1.20811
1713.0138,622.372,-1.21051
1713.0942,622.472,-1.21459
1713.1746,622.572,-1.22146
1713.255,622.672,-1.22523
1713.3354,622.772,-1.21837
1713.4158,622.872,-1.20992
1713.4962,622.972,-1.22813
1713.5772,623.072,-1.29132
1713.6576,623.172,-1.36741
1713.738,623.272,-1.41133
1713.8178,623.372,-1.41323
1713.8982,623.472,-1.4012
1713.9786,623.572,-1.39921
1714.059,623.672,-1.40589
1714.1394,623.772,-1.41322
1714.2198,623.872,-1.41782
1714.3002,623.972,-1.42101
1714.3812,624.072,-1.42409
1714.4616,624.172,-1.42736
1714.542,624.272,-1.43088
1714.6224,624.372,-1.43476
1714.7028,624.472,-1.43915
1714.7832,624.572,-1.44413
1714.8636,624.672,-1.44951
1714.944,624.772,-1.45503
1715.0244,624.872,-1.46039
1715.1042,624.972,-1.46525
1715.1846,625.072,-1.46943
1715.265,625.172,-1.4733
1715.3454,625.272,-1.47729
1715.4258,625.372,-1.48141
1715.5068,625.472,-1.4853
1715.5872,625.572,-1.48873
1715.6682,625.672,-1.49182
1715.7486,625.772,-1.49479
1715.829,625.872,-1.4979
1715.9094,625.972,-1.50144
1715.9898,626.072,-1.5056
1716.0702,626.172,-1.51023
1716.1512,626.272,-1.51512
1716.2316,626.372,-1.52002
1716.312,626.472,-1.52468
1716.393,626.572,-1.52891
1716.4734,626.672,-1.53279
1716.5544,626.772,-1.53642
1716.6348,626.872,-1.53998
1716.7152,626.972,-1.54373
1716.7956,627.072,-1.54775
1716.8766,627.172,-1.55183
1716.957,627.272,-1.55575
1717.0374,627.372,-1.55968
1717.1178,627.472,-1.56402
1717.1988,627.572,-1.5689
1717.2798,627.672,-1.57382
1717.3602,627.772,-1.5783
1717.4406,627.872,-1.58259
1717.5216,627.972,-1.58733
1717.602,628.072,-1.59268
1717.683,628.172,-1.59798
1717.764,628.272,-1.60255
1717.845,628.372,-1.60647
1717.926,628.472,-1.61018
1718.007,628.572,-1.61388
1718.0874,628.672,-1.61747
1718.1678,628.772,-1.62085
1718.2482,628.872,-1.62439
1718.3286,628.972,-1.62861
1718.4096,629.072,-1.63368
1718.49,629.172,-1.63929
1718.571,629.272,-1.64509
1718.652,629.372,-1.65078
1718.7324,629.472,-1.65606
1718.8128,629.572,-1.66074
1718.8938,629.672,-1.66471
1718.9742,629.772,-1.668
1719.0546,629.872,-1.6711
1719.135,629.972,-1.67464
1719.216,630.072,-1.67891
1719.2964,630.172,-1.68378
1719.3774,630.272,-1.68905
1719.4578,630.372,-1.69436
1719.5388,630.472,-1.69932
1719.6198,630.572,-1.70382
1719.7002,630.672,-1.70801
1719.7806,630.772,-1.71206
1719.861,630.872,-1.71606
1719.942,630.972,-1.72012
1720.023,631.072,-1.72441
1720.1034,631.172,-1.72923
1720.1844,631.272,-1.73472
1720.2648,631.372,-1.7405
1720.3452,631.472,-1.7461
1720.4262,631.572,-1.75136
1720.5066,631.672,-1.75641
1720.587,631.772,-1.76124
1720.668,631.872,-1.76553
1720.7484,631.972,-1.76893
1720.8294,632.072,-1.7719
1720.9104,632.172,-1.77555
1720.9914,632.272,-1.78051
1721.0724,632.372,-1.7861
1721.1528,632.472,-1.79142
1721.2332,632.572,-1.79625
1721.3142,632.672,-1.80076
1721.3946,632.772,-1.80514
1721.4762,632.872,-1.80962
1721.5572,632.972,-1.81443
1721.6376,633.072,-1.81966
1721.7186,633.172,-1.82537
1721.7996,633.272,-1.83145
1721.8806,633.372,-1.83757
1721.9616,633.472,-1.8434
1722.0426,633.572,-1.84868
1722.123,633.672,-1.85322
1722.204,633.772,-1.85714
1722.2844,633.872,-1.86115
1722.3654,633.972,-1.8659
1722.4464,634.072,-1.87128
1722.5274,634.172,-1.87689
1722.6078,634.272,-1.8825
1722.6888,634.372,-1.8882
1722.7698,634.472,-1.89402
1722.8508,634.572,-1.89973
1722.9318,634.672,-1.90497
1723.0128,634.772,-1.90958
1723.0932,634.872,-1.91369
1723.1742,634.972,-1.91748
1723.2552,635.072,-1.92147
1723.3356,635.172,-1.92624
1723.4166,635.272,-1.93184
1723.497,635.372,-1.93779
1723.578,635.472,-1.94362
1723.659,635.572,-1.94924
1723.74,635.672,-1.95466
1723.8216,635.772,-1.95993
1723.9026,635.872,-1.96517
1723.9836,635.972,-1.97043
1724.064,636.072,-1.97569
1724.145,636.172,-1.98085
1724.226,636.272,-1.9858
1724.3076,636.372,-1.9904
1724.3886,636.472,-1.99466
1724.4696,636.572,-1.99914
1724.5506,636.672,-2.00444
1724.6322,636.772,-2.01056
1724.7132,636.872,-2.01706
1724.7942,636.972,-2.02351
1724.8758,637.072,-2.02941
1724.9568,637.172,-2.03434
1725.0378,637.272,-2.03864
1725.1188,637.372,-2.04307
1725.1998,637.472,-2.04799
1725.2808,637.572,-2.05291
1725.3624,637.672,-2.05733
1725.4434,637.772,-2.06163
1725.5244,637.872,-2.06661
1725.6054,637.972,-2.07255
1725.6858,638.072,-2.07891
1725.7668,638.172,-2.08512
1725.8484,638.272,-2.09115
1725.9294,638.372,-2.09721
1726.011,638.472,-2.10335
1726.0926,638.572,-2.10945
1726.1736,638.672,-2.11538
1726.2552,638.772,-2.12103
1726.3362,638.872,-2.12628
1726.4172,638.972,-2.13117
1726.4982,639.072,-2.1359
1726.5798,639.172,-2.1408
1726.6614,639.272,-2.14663
1726.7424,639.372,-2.15418
1726.8234,639.472,-2.16212
1726.9044,639.572,-2.16713
1726.9854,639.672,-2.1674
1727.0658,639.772,-2.16654
1727.1468,639.872,-2.16909
1727.2278,639.972,-2.17521
1727.3088,640.072,-2.18159
1727.3898,640.172,-2.18598
1727.4708,640.272,-2.18956
1727.5518,640.372,-2.19401
1727.6328,640.472,-2.19973
1727.7144,640.572,-2.20616
1727.7954,640.672,-2.21278
1727.877,640.772,-2.21924
1727.958,640.872,-2.22523
1728.039,640.972,-2.23085
1728.12,641.072,-2.23639
1728.2016,641.172,-2.24207
1728.2832,641.272,-2.24783
1728.3648,641.372,-2.25359
1728.4464,641.472,-2.25928
1728.5274,641.572,-2.26487
1728.6084,641.672,-2.27043
1728.6894,641.772,-2.27621
1728.771,641.872,-2.28241
1728.8526,641.972,-2.28861
1728.9336,642.072,-2.29423
1729.0152,642.172,-2.29913
1729.0962,642.272,-2.30378
1729.1772,642.372,-2.30865
1729.2582,642.472,-2.314
1729.3392,642.572,-2.32001
1729.4208,642.672,-2.32656
1729.5024,642.772,-2.33317
1729.5834,642.872,-2.33948
1729.665,642.972,-2.34548
1729.746,643.072,-2.35128
1729.8276,643.172,-2.35698
1729.9092,643.272,-2.36265
1729.9908,643.372,-2.36844
1730.0724,643.472,-2.3747
1730.154,643.572,-2.38175
1730.235,643.672,-2.38923
1730.316,643.772,-2.39635
1730.3976,643.872,-2.40266
1730.4792,643.972,-2.40851
1730.5602,644.072,-2.41431
1730.6412,644.172,-2.42004
1730.7222,644.272,-2.42547
1730.8032,644.372,-2.43061
1730.8842,644.472,-2.43592
1730.9652,644.572,-2.44181
1731.0468,644.672,-2.44802
1731.1278,644.772,-2.45399
1731.2094,644.872,-2.45943
1731.291,644.972,-2.46446
1731.372,645.072,-2.46929
1731.453,645.172,-2.47451
1731.534,645.272,-2.48084
1731.615,645.372,-2.48821
1731.6966,645.472,-2.49568
1731.7776,645.572,-2.50246
1731.8592,645.672,-2.5088
1731.9402,645.772,-2.51523
1732.0218,645.872,-2.52182
1732.1028,645.972,-2.52822
1732.1844,646.072,-2.53415
1732.2654,646.172,-2.53971
1732.347,646.272,-2.54512
1732.428,646.372,-2.55067
1732.5096,646.472,-2.55675
1732.5906,646.572,-2.56352
1732.6722,646.672,-2.5706
1732.7538,646.772,-2.57753
1732.8348,646.872,-2.58409
1732.9164,646.972,-2.59019
1732.998,647.072,-2.59589
1733.079,647.172,-2.60152
1733.1606,647.272,-2.60742
1733.2422,647.372,-2.6136
1733.3244,647.472,-2.61984
1733.406,647.572,-2.62617
1733.4876,647.672,-2.6329
1733.5692,647.772,-2.64028
1733.6508,647.872,-2.64776
1733.7318,647.972,-2.65452
1733.8134,648.072,-2.66031
1733.895,648.172,-2.66566
1733.976,648.272,-2.67108
1734.0576,648.372,-2.67683
1734.1392,648.472,-2.68308
1734.2208,648.572,-2.68969
1734.303,648.672,-2.69621
1734.3846,648.772,-2.70237
1734.4662,648.872,-2.70843
1734.5478,648.972,-2.71478
1734.6294,649.072,-2.72139
1734.711,649.172,-2.72783
1734.7926,649.272,-2.73392
1734.8742,649.372,-2.74001
1734.9558,649.472,-2.74654
1735.0374,649.572,-2.7535
1735.1184,649.672,-2.76061
1735.2,649.772,-2.76754
1735.2822,649.872,-2.77378
1735.3638,649.972,-2.77894
1735.4454,650.072,-2.78363
1735.5276,650.172,-2.78888
1735.6092,650.272,-2.79519
1735.6908,650.372,-2.80219
1735.7724,650.472,-2.80948
1735.8546,650.572,-2.81687
1735.9362,650.672,-2.82426
1736.0178,650.772,-2.83142
1736.1,650.872,-2.83798
1736.1816,650.972,-2.84376
1736.2638,651.072,-2.84938
1736.346,651.172,-2.85562
1736.4276,651.272,-2.86236
1736.5098,651.372,-2.8687
1736.5914,651.472,-2.87412
1736.6736,651.572,-2.87925
1736.7552,651.672,-2.88487
1736.8374,651.772,-2.89106
1736.919,651.872,-2.89752
1737.0012,651.972,-2.90403
1737.0828,652.072,-2.9106
1737.165,652.172,-2.91726
1737.2466,652.272,-2.92385
1737.3288,652.372,-2.93017
1737.4104,652.472,-2.93623
1737.492,652.572,-2.94238
1737.5742,652.672,-2.94889
1737.6564,652.772,-2.95554
1737.7386,652.872,-2.96195
1737.8202,652.972,-2.96806
1737.9018,653.072,-2.97414
1737.9834,653.172,-2.98046
1738.065,653.272,-2.98708
1738.1472,653.372,-2.99404
1738.2288,653.472,-3.0011
1738.3104,653.572,-3.00782
1738.392,653.672,-3.01389
1738.4742,653.772,-3.01937
1738.5558,653.872,-3.0244
1738.638,653.972,-3.02954
1738.7196,654.072,-3.03559
1738.8012,654.172,-3.04282
1738.8828,654.272,-3.05045
1738.965,654.372,-3.05762
1739.0466,654.472,-3.06412
1739.1288,654.572,-3.06998
1739.2104,654.672,-3.07535
1739.2926,654.772,-3.08053
1739.3742,654.872,-3.08582
1739.4564,654.972,-3.09159
1739.538,655.072,-3.0982
1739.6196,655.172,-3.10556
1739.7012,655.272,-3.11313
1739.7834,655.372,-3.12043
1739.8656,655.472,-3.12728
1739.9478,655.572,-3.13357
1740.03,655.672,-3.13936
1740.1122,655.772,-3.14479
1740.1938,655.872,-3.15005
1740.276,655.972,-3.15538
1740.3576,656.072,-3.16101
1740.4398,656.172,-3.16713
1740.522,656.272,-3.17388
1740.6048,656.372,-3.18124
1740.687,656.472,-3.18881
1740.7692,656.572,-3.19621
1740.8514,656.672,-3.20317
1740.9336,656.772,-3.20953
1741.0158,656.872,-3.2155
1741.098,656.972,-3.22183
1741.1802,657.072,-3.22904
1741.2624,657.172,-3.23662
1741.3446,657.272,-3.24377
1741.4262,657.372,-3.2501
1741.5084,657.472,-3.25552
1741.5906,657.572,-3.26013
1741.6734,657.672,-3.26451
1741.7556,657.772,-3.26932
1741.8384,657.872,-3.27499
1741.9206,657.972,-3.28182
1742.0028,658.072,-3.28969
1742.085,658.172,-3.29761
1742.1672,658.272,-3.30463
1742.25,658.372,-3.31066
1742.3322,658.472,-3.31604
1742.4138,658.572,-3.32119
1742.496,658.672,-3.3267
1742.5782,658.772,-3.33303
1742.6604,658.872,-3.33979
1742.7432,658.972,-3.34642
1742.826,659.072,-3.35267
1742.9082,659.172,-3.35859
1742.991,659.272,-3.3644
1743.0732,659.372,-3.3707
1743.1548,659.472,-3.37807
1743.237,659.572,-3.38609
1743.3192,659.672,-3.39367
1743.4014,659.772,-3.40018
1743.4836,659.872,-3.40592
1743.5664,659.972,-3.41136
1743.6486,660.072,-3.41705
1743.7308,660.172,-3.42358
1743.8136,660.272,-3.43101
1743.8958,660.372,-3.43862
1743.9786,660.472,-3.4457
1744.0608,660.572,-3.45168
1744.143,660.672,-3.45611
1744.2252,660.772,-3.45953
1744.3074,660.872,-3.46342
1744.3896,660.972,-3.46884
1744.4718,661.072,-3.47552
1744.554,661.172,-3.48296
1744.6368,661.272,-3.49081
1744.719,661.372,-3.49887
1744.8012,661.472,-3.50689
1744.884,661.572,-3.51457
1744.9668,661.672,-3.52164
1745.0496,661.772,-3.52818
1745.1324,661.872,-3.5344
1745.2146,661.972,-3.54035
1745.2968,662.072,-3.54581
1745.379,662.172,-3.55069
1745.4612,662.272,-3.55554
1745.544,662.372,-3.56105
1745.6262,662.472,-3.56751
1745.709,662.572,-3.57483
1745.7918,662.672,-3.58276
1745.874,662.772,-3.59065
1745.9568,662.872,-3.59785
1746.039,662.972,-3.60438
1746.1218,663.072,-3.61066
1746.2046,663.172,-3.61694
1746.2868,663.272,-3.62306
1746.3696,663.372,-3.62891
1746.4524,663.472,-3.63464
1746.5352,663.572,-3.64054
1746.6174,663.672,-3.64671
1746.7002,663.772,-3.65302
1746.783,663.872,-3.65932
1746.8658,663.972,-3.6655
1746.9486,664.072,-3.6715
1747.0314,664.172,-3.67756
1747.1142,664.272,-3.68422
1747.197,664.372,-3.69166
1747.2804,664.472,-3.69924
1747.3632,664.572,-3.70631
1747.446,664.672,-3.71285
1747.5288,664.772,-3.71919
1747.6116,664.872,-3.72548
1747.6938,664.972,-3.73157
1747.7766,665.072,-3.73736
1747.8594,665.172,-3.7431
1747.9422,665.272,-3.7491
1748.025,665.372,-3.75559
1748.1078,665.472,-3.76269
1748.1906,665.572,-3.77031
1748.2734,665.672,-3.77776
1748.3562,665.772,-3.78429
1748.439,665.872,-3.78998
1748.5218,665.972,-3.79546
1748.6052,666.072,-3.80115
1748.688,666.172,-3.80711
1748.7708,666.272,-3.81339
1748.8542,666.372,-3.82008
1748.937,666.472,-3.82727
1749.0204,666.572,-3.83462
1749.1032,666.672,-3.84123
1749.1866,666.772,-3.84655
1749.2694,666.872,-3.85125
1749.3528,666.972,-3.85623
1749.4362,667.072,-3.86197
1749.519,667.172,-3.8686
1749.6018,667.272,-3.87602
1749.6846,667.372,-3.88362
1749.7674,667.472,-3.89077
1749.8508,667.572,-3.89735
1749.9336,667.672,-3.90341
1750.0164,667.772,-3.90896
1750.0992,667.872,-3.91396
1750.1826,667.972,-3.91862
1750.266,668.072,-3.92415
1750.3494,668.172,-3.93181
1750.4322,668.272,-3.93964
1750.5156,668.372,-3.94312
1750.5984,668.472,-3.94131
1750.6818,668.572,-3.94174
1750.7652,668.672,-3.95153
1750.848,668.772,-3.96534
1750.9314,668.872,-3.97212
1751.0148,668.972,-3.9702
1751.0982,669.072,-3.97086
1751.181,669.172,-3.98256
1751.2644,669.272,-3.99756
1751.3472,669.372,-4.00441
1751.4306,669.472,-4.00295
1751.5134,669.572,-4.00235
1751.5968,669.672,-4.00829
1751.6796,669.772,-4.01704
1751.763,669.872,-4.02396
1751.847,669.972,-4.0289
1751.9304,670.072,-4.03398
1752.0132,670.172,-4.04015
1752.0966,670.272,-4.04672
1752.18,670.372,-4.05303
1752.2634,670.472,-4.05922
1752.3468,670.572,-4.06562
1752.4296,670.672,-4.07203
1752.513,670.772,-4.07782
1752.5964,670.872,-4.08276
1752.6798,670.972,-4.08769
1752.7632,671.072,-4.09354
1752.846,671.172,-4.10031
1752.9288,671.272,-4.10756
1753.0122,671.372,-4.11484
1753.0956,671.472,-4.12167
1753.179,671.572,-4.12772
1753.2624,671.672,-4.13339
1753.3452,671.772,-4.13923
1753.4286,671.872,-4.1452
1753.5114,671.972,-4.15071
1753.5948,672.072,-4.15556
1753.6782,672.172,-4.16054
1753.7616,672.272,-4.16654
1753.8444,672.372,-4.17336
1753.9278,672.472,-4.1803
1754.0112,672.572,-4.18698
1754.0946,672.672,-4.19358
1754.178,672.772,-4.20022
1754.2608,672.872,-4.20642
1754.3436,672.972,-4.21158
1754.4264,673.072,-4.21595
1754.5098,673.172,-4.22058
1754.5926,673.272,-4.22616
1754.6766,673.372,-4.23226
1754.76,673.472,-4.23829
1754.8428,673.572,-4.24411
1754.9262,673.672,-4.24979
1755.0102,673.772,-4.25534
1755.0936,673.872,-4.2606
1755.177,673.972,-4.26549
1755.2604,674.072,-4.27045
1755.3438,674.172,-4.27604
1755.4278,674.272,-4.28232
1755.5112,674.372,-4.28888
1755.5946,674.472,-4.29534
1755.6786,674.572,-4.30149
1755.762,674.672,-4.30715
1755.846,674.772,-4.31253
1755.93,674.872,-4.31799
1756.014,674.972,-4.32376
1756.098,675.072,-4.32985
1756.1814,675.172,-4.33611
1756.2648,675.272,-4.3419
1756.3488,675.372,-4.34651
1756.4328,675.472,-4.35014
1756.5168,675.572,-4.35376
1756.6002,675.672,-4.35805
1756.6842,675.772,-4.363
1756.7682,675.872,-4.36853
1756.8522,675.972,-4.37448
1756.9362,676.072,-4.38069
1757.0202,676.172,-4.38701
1757.1048,676.272,-4.39334
1757.1882,676.372,-4.39951
1757.2722,676.472,-4.40525
1757.3562,676.572,-4.41028
1757.4396,676.672,-4.41479
1757.5236,676.772,-4.41929
1757.607,676.872,-4.42412
1757.691,676.972,-4.4294
1757.775,677.072,-4.43516
1757.8584,677.172,-4.44111
1757.9424,677.272,-4.44687
1758.0264,677.372,-4.45232
1758.1104,677.472,-4.45767
1758.1944,677.572,-4.46295
1758.2778,677.672,-4.46783
1758.3618,677.772,-4.47202
1758.4458,677.872,-4.47604
1758.5298,677.972,-4.48084
1758.6138,678.072,-4.48669
1758.6978,678.172,-4.49285
1758.7818,678.272,-4.49862
1758.8652,678.372,-4.50393
1758.9492,678.472,-4.50884
1759.0332,678.572,-4.51345
1759.1166,678.672,-4.51787
1759.2006,678.772,-4.52229
1759.2846,678.872,-4.52707
1759.3692,678.972,-4.53254
1759.4532,679.072,-4.53855
1759.5372,679.172,-4.54477
1759.6212,679.272,-4.55082
1759.7052,679.372,-4.55632
1759.7892,679.472,-4.56097
1759.8732,679.572,-4.56488
1759.9572,679.672,-4.56826
1760.0412,679.772,-4.57152
1760.1258,679.872,-4.5752
1760.2098,679.972,-4.57959
1760.2944,680.072,-4.58464
1760.3784,680.172,-4.59024
1760.463,680.272,-4.59625
1760.5464,680.372,-4.60248
1760.6304,680.472,-4.60853
1760.7144,680.572,-4.61384
1760.799,680.672,-4.61818
1760.8836,680.772,-4.62219
1760.9682,680.872,-4.62657
1761.0522,680.972,-4.63129
1761.1362,681.072,-4.63603
1761.2202,681.172,-4.64066
1761.3042,681.272,-4.64524
1761.3888,681.372,-4.64986
1761.4728,681.472,-4.65451
1761.5574,681.572,-4.65918
1761.642,681.672,-4.66383
1761.726,681.772,-4.66843
1761.8106,681.872,-4.67301
1761.8952,681.972,-4.67771
1761.9792,682.072,-4.68265
1762.0632,682.172,-4.68776
1762.1478,682.272,-4.69293
1762.2324,682.372,-4.69804
1762.3164,682.472,-4.70295
1762.401,682.572,-4.70761
1762.4856,682.672,-4.7122
1762.5702,682.772,-4.71687
1762.6548,682.872,-4.72155
1762.7394,682.972,-4.72608
1762.824,683.072,-4.73037
1762.908,683.172,-4.73438
1762.9926,683.272,-4.73817
1763.0772,683.372,-4.74195
1763.1618,683.472,-4.74598
1763.2464,683.572,-4.75024
1763.331,683.672,-4.75462
1763.4156,683.772,-4.75894
1763.4996,683.872,-4.76299
1763.5842,683.972,-4.76669
1763.6688,684.072,-4.77047
1763.7534,684.172,-4.77485
1763.838,684.272,-4.77964
1763.9226,684.372,-4.78415
1764.0078,684.472,-4.78805
1764.093,684.572,-4.79169
1764.1776,684.672,-4.79542
1764.2622,684.772,-4.79927
1764.3474,684.872,-4.80319
1764.432,684.972,-4.80733
1764.5166,685.072,-4.81196
1764.6012,685.172,-4.81712
1764.6858,685.272,-4.8222
1764.7704,685.372,-4.82661
1764.855,685.472,-4.83028
1764.9396,685.572,-4.8334
1765.0242,685.672,-4.83627
1765.1088,685.772,-4.83935
1765.1934,685.872,-4.84294
1765.278,685.972,-4.84692
1765.3626,686.072,-4.85108
1765.4472,686.172,-4.85534
1765.5324,686.272,-4.85964
1765.617,686.372,-4.86392
1765.7016,686.472,-4.86807
1765.7862,686.572,-4.87202
1765.8708,686.672,-4.87577
1765.956,686.772,-4.87932
1766.0412,686.872,-4.88272
1766.1264,686.972,-4.886
1766.211,687.072,-4.88912
1766.2962,687.172,-4.89188
1766.3808,687.272,-4.89422
1766.4654,687.372,-4.89674
1766.55,687.472,-4.90017
1766.6352,687.572,-4.90449
1766.7198,687.672,-4.90907
1766.805,687.772,-4.91344
1766.8896,687.872,-4.91753
1766.9748,687.972,-4.92127
1767.0594,688.072,-4.92459
1767.144,688.172,-4.92739
1767.2292,688.272,-4.92985
1767.3138,688.372,-4.93246
1767.399,688.472,-4.93545
1767.4842,688.572,-4.93847
1767.5694,688.672,-4.94117
1767.654,688.772,-4.94363
1767.7386,688.872,-4.94619
1767.8232,688.972,-4.94905
1767.9078,689.072,-4.95234
1767.9924,689.172,-4.95607
1768.077,689.272,-4.95997
1768.1622,689.372,-4.9637
1768.2474,689.472,-4.9671
1768.332,689.572,-4.97008
1768.4172,689.672,-4.97269
1768.5018,689.772,-4.97505
1768.5864,689.872,-4.97737
1768.671,689.972,-4.97997
1768.7556,690.072,-4.98318
1768.8402,690.172,-4.98671
1768.9254,690.272,-4.98987
1769.0106,690.372,-4.99242
1769.0952,690.472,-4.99486
1769.1804,690.572,-4.99765
1769.265,690.672,-5.00072
1769.3502,690.772,-5.00382
1769.4348,690.872,-5.00683
1769.52,690.972,-5.00964
1769.6052,691.072,-5.01225
1769.6898,691.172,-5.01472
1769.775,691.272,-5.01715
1769.8596,691.372,-5.0197
1769.9448,691.472,-5.02253
1770.0294,691.572,-5.02556
1770.114,691.672,-5.02846
1770.1998,691.772,-5.03105
1770.285,691.872,-5.03354
1770.3696,691.972,-5.03615
1770.4548,692.072,-5.03873
1770.5394,692.172,-5.04101
1770.6252,692.272,-5.04304
1770.7098,692.372,-5.04529
1770.795,692.472,-5.04796
1770.8796,692.572,-5.05049
1770.9648,692.672,-5.0523
1771.05,692.772,-5.05384
1771.1352,692.872,-5.05603
1771.2204,692.972,-5.05907
1771.3056,693.072,-5.06218
1771.3908,693.172,-5.06482
1771.4754,693.272,-5.06727
1771.5606,693.372,-5.06993
1771.6458,693.472,-5.07258
1771.7304,693.572,-5.07464
1771.8156,693.672,-5.07596
1771.9002,693.772,-5.07701
1771.9854,693.872,-5.07827
1772.0706,693.972,-5.08013
1772.1552,694.072,-5.08293
1772.2398,694.172,-5.08643
1772.325,694.272,-5.09002
1772.4102,694.372,-5.09324
1772.4954,694.472,-5.09588
1772.5806,694.572,-5.09785
1772.6658,694.672,-5.0994
1772.751,694.772,-5.10093
1772.8362,694.872,-5.1026
1772.9214,694.972,-5.10449
1773.0072,695.072,-5.1066
1773.0924,695.172,-5.10881
1773.1782,695.272,-5.11102
1773.2634,695.372,-5.11313
1773.3486,695.472,-5.1151
1773.4338,695.572,-5.11712
1773.519,695.672,-5.11961
1773.6048,695.772,-5.12267
1773.69,695.872,-5.12568
1773.7752,695.972,-5.12804
1773.8604,696.072,-5.12958
1773.9456,696.172,-5.13028
1774.0314,696.272,-5.13056
1774.1166,696.372,-5.13118
1774.2018,696.472,-5.13263
1774.287,696.572,-5.13466
1774.3722,696.672,-5.13694
1774.458,696.772,-5.1391
1774.5432,696.872,-5.14075
1774.6284,696.972,-5.14171
1774.7136,697.072,-5.142
1774.7994,697.172,-5.14184
1774.8846,697.272,-5.14191
1774.9704,697.372,-5.14287
1775.0556,697.472,-5.14475
1775.1408,697.572,-5.14726
1775.2266,697.672,-5.14997
1775.3118,697.772,-5.15228
1775.3976,697.872,-5.15392
1775.4828,697.972,-5.15559
1775.568,698.072,-5.15798
1775.6532,698.172,-5.1607
1775.739,698.272,-5.16287
1775.8242,698.372,-5.16422
1775.91,698.472,-5.16509
1775.9958,698.572,-5.16586
1776.0816,698.672,-5.16676
1776.1668,698.772,-5.16803
1776.252,698.872,-5.16978
1776.3378,698.972,-5.17209
1776.4236,699.072,-5.17475
1776.5094,699.172,-5.17724
1776.5946,699.272,-5.17919
1776.6798,699.372,-5.18069
1776.7656,699.472,-5.18194
1776.8514,699.572,-5.18318
1776.9372,699.672,-5.18471
1777.023,699.772,-5.18649
1777.1082,699.872,-5.18815
1777.194,699.972,-5.18943
1777.2798,700.072,-5.19067
1777.3662,700.172,-5.19223
1777.452,700.272,-5.19401
1777.5378,700.372,-5.19573
1777.6236,700.472,-5.19715
1777.7094,700.572,-5.19807
1777.7952,700.672,-5.1985
1777.881,700.772,-5.19887
1777.9668,700.872,-5.19968
1778.0526,700.972,-5.20104
1778.1384,701.072,-5.20287
1778.2242,701.172,-5.20503
1778.31,701.272,-5.20725
1778.3952,701.372,-5.20925
1778.481,701.472,-5.21076
1778.5668,701.572,-5.21155
1778.6526,701.672,-5.21186
1778.7384,701.772,-5.21217
1778.8236,701.872,-5.21286
1778.9094,701.972,-5.21418
1778.9952,702.072,-5.21622
1779.081,702.172,-5.21851
1779.1662,702.272,-5.22053
1779.2514,702.372,-5.22219
1779.3372,702.472,-5.22358
1779.423,702.572,-5.22484
1779.5094,702.672,-5.22615
1779.5952,702.772,-5.22747
1779.6816,702.872,-5.22806
1779.7668,702.972,-5.22721
1779.8526,703.072,-5.22566
1779.9378,703.172,-5.22476
1780.0236,703.272,-5.22507
1780.1094,703.372,-5.22614
1780.1952,703.472,-5.22752
1780.281,703.572,-5.22878
1780.3662,703.672,-5.22959
1780.452,703.772,-5.23034
1780.5378,703.872,-5.23171
1780.6236,703.972,-5.23363
1780.7094,704.072,-5.23511
1780.7952,704.172,-5.23561
1780.8816,704.272,-5.23587
1780.9674,704.372,-5.23679
1781.0532,704.472,-5.23822
1781.139,704.572,-5.23957
1781.2248,704.672,-5.24051
1781.3106,704.772,-5.24104
1781.3964,704.872,-5.24121
1781.4822,704.972,-5.24106
1781.5686,705.072,-5.24073
1781.6544,705.172,-5.24069
1781.7408,705.272,-5.24153
1781.8266,705.372,-5.24304
1781.913,705.472,-5.24408
1781.9988,705.572,-5.24409
1782.0846,705.672,-5.24395
1782.1704,705.772,-5.2446
1782.2562,705.872,-5.24564
1782.3426,705.972,-5.24612
1782.4284,706.072,-5.24599
1782.5148,706.172,-5.24606
1782.6006,706.272,-5.24681
1782.687,706.372,-5.24785
1782.7734,706.472,-5.24869
1782.8592,706.572,-5.24905
1782.9456,706.672,-5.24877
1783.032,706.772,-5.24818
1783.1184,706.872,-5.24805
1783.2042,706.972,-5.24876
1783.2906,707.072,-5.24988
1783.377,707.172,-5.25091
1783.4628,707.272,-5.25172
1783.5492,707.372,-5.25231
1783.635,707.472,-5.25273
1783.7214,707.572,-5.25309
1783.8078,707.672,-5.25346
1783.8942,707.772,-5.25396
1783.9806,707.872,-5.25466
1784.067,707.972,-5.25558
1784.1534,708.072,-5.25672
1784.2398,708.172,-5.25772
1784.3262,708.272,-5.25796
1784.4126,708.372,-5.2574
1784.499,708.472,-5.257
1784.5854,708.572,-5.25752
1784.6718,708.672,-5.25862
1784.7582,708.772,-5.25972
1784.8446,708.872,-5.26058
1784.931,708.972,-5.26119
1785.0174,709.072,-5.26163
1785.1038,709.172,-5.26202
1785.1902,709.272,-5.26246
1785.2772,709.372,-5.2629
1785.3636,709.472,-5.26326
1785.45,709.572,-5.26366
1785.5358,709.672,-5.26432
1785.6222,709.772,-5.26522
1785.7086,709.872,-5.26608
1785.795,709.972,-5.26667
1785.8814,710.072,-5.26697
1785.9678,710.172,-5.26701
1786.0542,710.272,-5.26697
1786.1412,710.372,-5.26709
1786.2276,710.472,-5.26749
1786.3146,710.572,-5.26812
1786.4016,710.672,-5.26894
1786.488,710.772,-5.26987
1786.5744,710.872,-5.27082
1786.6608,710.972,-5.27168
1786.7472,711.072,-5.27232
1786.8342,711.172,-5.27275
1786.9206,711.272,-5.27308
1787.0076,711.372,-5.27344
1787.0946,711.472,-5.27396
1787.1816,711.572,-5.27472
1787.2686,711.672,-5.27565
1787.355,711.772,-5.2766
1787.4414,711.872,-5.27748
1787.5284,711.972,-5.27823
1787.6154,712.072,-5.27877
1787.7024,712.172,-5.279
1787.7894,712.272,-5.27892
1787.8764,712.372,-5.27892
1787.9628,712.472,-5.27943
1788.0498,712.572,-5.28038
1788.1362,712.672,-5.28143
1788.2232,712.772,-5.28235
1788.3102,712.872,-5.28307
1788.3972,712.972,-5.28357
1788.4842,713.072,-5.28394
1788.5706,713.172,-5.28428
1788.6576,713.272,-5.28471
1788.744,713.372,-5.28537
1788.831,713.472,-5.28625
1788.9174,713.572,-5.28719
1789.0044,713.672,-5.28809
1789.092,713.772,-5.28892
1789.179,713.872,-5.28966
1789.2666,713.972,-5.29003
1789.3536,714.072,-5.28974
1789.44,714.172,-5.28915
1789.527,714.272,-5.28908
1789.6134,714.372,-5.28987
1789.7004,714.472,-5.291
1789.7868,714.572,-5.29202
1789.8738,714.672,-5.29281
1789.9608,714.772,-5.29338
1790.0478,714.872,-5.29379
1790.1348,714.972,-5.29414
1790.2218,715.072,-5.29453
1790.3082,715.172,-5.29506
1790.3946,715.272,-5.29582
1790.4816,715.372,-5.29678
1790.5686,715.472,-5.29785
1790.6562,715.572,-5.29875
1790.7432,715.672,-5.29907
1790.8302,715.772,-5.29895
1790.9178,715.872,-5.29908
1791.0042,715.972,-5.29983
1791.0912,716.072,-5.30089
1791.1782,716.172,-5.30191
1791.2652,716.272,-5.30274
1791.3522,716.372,-5.30331
1791.4392,716.472,-5.30372
1791.5262,716.572,-5.30414
1791.6126,716.672,-5.30463
1791.6996,716.772,-5.305
1791.786,716.872,-5.3051
1791.873,716.972,-5.30503
1791.96,717.072,-5.30495
1792.0476,717.172,-5.30495
1792.1346,717.272,-5.30507
1792.2222,717.372,-5.3054
1792.3098,717.472,-5.3061
1792.3968,717.572,-5.30712
1792.4838,717.672,-5.30792
1792.5708,717.772,-5.30803
1792.6584,717.872,-5.30789
1792.7454,717.972,-5.30836
1792.8324,718.072,-5.30938
1792.92,718.172,-5.31009
1793.007,718.272,-5.31008
1793.0946,718.372,-5.30999
1793.1822,718.472,-5.31038
1793.2692,718.572,-5.3109
1793.3568,718.672,-5.31099
1793.4438,718.772,-5.31085
1793.5308,718.872,-5.31124
1793.6184,718.972,-5.31225
1793.706,719.072,-5.31303
1793.7936,719.172,-5.31302
1793.8812,719.272,-5.31293
1793.9688,719.372,-5.3136
1794.0564,719.472,-5.31464
1794.1446,719.572,-5.31515
1794.2322,719.672,-5.31504
1794.3198,719.772,-5.31505
1794.408,719.872,-5.31552
1794.4956,719.972,-5.31599
1794.5832,720.072,-5.31604
1794.6708,720.172,-5.31596
1794.7584,720.272,-5.31623
1794.846,720.372,-5.31675
1794.9342,720.472,-5.31708
1795.0218,720.572,-5.31708
1795.1094,720.672,-5.31699
1795.197,720.772,-5.317
1795.2846,720.872,-5.31701
1795.3728,720.972,-5.31692
1795.4604,721.072,-5.31691
1795.548,721.172,-5.31723
1795.6356,721.272,-5.31776
1795.7232,721.372,-5.31801
1795.8114,721.472,-5.31788
1795.8996,721.572,-5.318
1795.9872,721.672,-5.31882
1796.0754,721.772,-5.31981
1796.163,721.872,-5.32021
1796.2506,721.972,-5.3201
1796.3382,722.072,-5.31998
1796.4264,722.172,-5.32002
1796.5146,722.272,-5.31998
1796.6028,722.372,-5.3198
1796.6904,722.472,-5.31994
1796.778,722.572,-5.32076
1796.8656,722.672,-5.32175
1796.9538,722.772,-5.32214
1797.0414,722.872,-5.32202
1797.129,722.972,-5.32208
1797.2172,723.072,-5.32258
1797.3054,723.172,-5.32301
1797.393,723.272,-5.32304
1797.4806,723.372,-5.32298
1797.5688,723.472,-5.32323
1797.6564,723.572,-5.32374
1797.744,723.672,-5.32422
1797.8316,723.772,-5.32435
1797.9192,723.872,-5.32381
1798.0068,723.972,-5.32268
1798.0944,724.072,-5.322
1798.1826,724.172,-5.32259
1798.2714,724.272,-5.32371
1798.3596,724.372,-5.32428
1798.4472,724.472,-5.32417
1798.5354,724.572,-5.32391
1798.623,724.672,-5.32383
1798.7112,724.772,-5.32405
1798.8,724.872,-5.32454
1798.8882,724.972,-5.32497
1798.9764,725.072,-5.32502
1799.0646,725.172,-5.32496
1799.1528,725.272,-5.3252
1799.241,725.372,-5.3257
1799.3292,725.472,-5.32609
1799.4174,725.572,-5.32616
1799.5056,725.672,-5.32598
1799.5932,725.772,-5.32575
1799.6814,725.872,-5.32588
1799.769,725.972,-5.32673
1799.8572,726.072,-5.32774
1799.946,726.172,-5.32799
1800.0342,726.272,-5.32745
1800.1224,726.372,-5.32691
1800.2106,726.472,-5.32684
1800.2994,726.572,-5.327
1800.3876,726.672,-5.32709
1800.4764,726.772,-5.32704
1800.5646,726.872,-5.32685
1800.6534,726.972,-5.32681
1800.7422,727.072,-5.32735
1800.8304,727.172,-5.32834
1800.918,727.272,-5.3291
1801.0062,727.372,-5.32923
1801.0944,727.472,-5.32902
1801.1826,727.572,-5.32883
1801.2714,727.672,-5.3289
1801.3596,727.772,-5.32934
1801.4484,727.872,-5.32987
1801.5372,727.972,-5.32995
1801.6254,728.072,-5.32949
1801.7136,728.172,-5.32893
1801.8024,728.272,-5.32867
1801.8906,728.372,-5.32894
1801.9794,728.472,-5.32979
1802.0682,728.572,-5.33076
1802.157,728.672,-5.3312
1802.2458,728.772,-5.33112
1802.3346,728.872,-5.33095
1802.4234,728.972,-5.33093
1802.5122,729.072,-5.33102
1802.6004,729.172,-5.33112
1802.6892,729.272,-5.33103
1802.7774,729.372,-5.33061
1802.8662,729.472,-5.33012
1802.9556,729.572,-5.32993
1803.0444,729.672,-5.32999
1803.1326,729.772,-5.32995
1803.2214,729.872,-5.32981
1803.3096,729.972,-5.33006
1803.3984,730.072,-5.33097
1803.4872,730.172,-5.33191
1803.576,730.272,-5.33225
1803.6642,730.372,-5.3321
1803.753,730.472,-5.33187
1803.8418,730.572,-5.33183
1803.9306,730.672,-5.33216
1804.0194,730.772,-5.33274
1804.1082,730.872,-5.33299
1804.197,730.972,-5.3326
1804.2858,731.072,-5.33206
1804.3746,731.172,-5.33191
1804.464,731.272,-5.332
1804.5528,731.372,-5.33192
1804.6416,731.472,-5.33182
1804.731,731.572,-5.33224
1804.8198,731.672,-5.33323
1804.9086,731.772,-5.33405
1804.9974,731.872,-5.33421
1805.0862,731.972,-5.33403
1805.175,732.072,-5.33395
1805.2644,732.172,-5.33399
1805.3538,732.272,-5.334
1805.4432,732.372,-5.33398
1805.532,732.472,-5.33403
1805.6208,732.572,-5.33411
1805.7102,732.672,-5.33396
1805.7996,732.772,-5.33349
1805.889,732.872,-5.33303
1805.9784,732.972,-5.33294
1806.0678,733.072,-5.33301
1806.1578,733.172,-5.3329
1806.2472,733.272,-5.33282
1806.3366,733.372,-5.33329
1806.426,733.472,-5.3343
1806.5154,733.572,-5.33508
1806.6042,733.672,-5.3352
1806.693,733.772,-5.33501
1806.7818,733.872,-5.33495
1806.8712,733.972,-5.33499
1806.9606,734.072,-5.335
1807.05,734.172,-5.33498
1807.1388,734.272,-5.33504
1807.2282,734.372,-5.3351
1807.3176,734.472,-5.33494
1807.4064,734.572,-5.33446
1807.4958,734.672,-5.33401
1807.5858,734.772,-5.33388
1807.6758,734.872,-5.33397
1807.7652,734.972,-5.33406
1807.8552,735.072,-5.33406
1807.9446,735.172,-5.33391
1808.034,735.272,-5.3338
1808.124,735.372,-5.33417
1808.2128,735.472,-5.3351
1808.3022,735.572,-5.33602
1808.3916,735.672,-5.3364
1808.481,735.772,-5.33614
1808.5704,735.872,-5.33529
1808.6598,735.972,-5.33431
1808.7492,736.072,-5.33382
1808.8386,736.172,-5.33387
1808.928,736.272,-5.33404
1809.0174,736.372,-5.33407
1809.1068,736.472,-5.33399
1809.1968,736.572,-5.33389
1809.2868,736.672,-5.33396
1809.3768,736.772,-5.33437
1809.4662,736.872,-5.33487
1809.5562,736.972,-5.3351
1809.6462,737.072,-5.33506
1809.7356,737.172,-5.33498
1809.8256,737.272,-5.33497
1809.915,737.372,-5.33501
1810.005,737.472,-5.33503
1810.095,737.572,-5.335
1810.1844,737.672,-5.33491
1810.2738,737.772,-5.33493
1810.3638,737.872,-5.33529
1810.4538,737.972,-5.3358
1810.5438,738.072,-5.33609
1810.6332,738.172,-5.33607
1810.7232,738.272,-5.33598
1810.8132,738.372,-5.33598
1810.9038,738.472,-5.336
1810.9938,738.572,-5.33601
1811.0838,738.672,-5.336
1811.1738,738.772,-5.336
1811.2638,738.872,-5.336
1811.3538,738.972,-5.336
1811.4444,739.072,-5.336
1811.5344,739.172,-5.336
1811.625,739.272,-5.336
1811.715,739.372,-5.336
1811.805,739.472,-5.336
1811.895,739.572,-5.336
1811.9856,739.672,-5.336
1812.0762,739.772,-5.336
1812.1668,739.872,-5.336
1812.2568,739.972,-5.336
1812.3468,740.072,-5.336
1812.4368,740.172,-5.336
1812.5268,740.272,-5.336
1812.6174,740.372,-5.336
1812.7074,740.472,-5.336
1812.798,740.572,-5.336
1812.888,740.672,-5.336
1812.9786,740.772,-5.336
1813.0692,740.872,-5.336
1813.1592,740.972,-5.336
1813.2498,741.072,-5.336
1813.3404,741.172,-5.336
1813.4304,741.272,-5.336
1813.521,741.372,-5.336
1813.611,741.472,-5.336
1813.7016,741.572,-5.336
1813.7916,741.672,-5.336
1813.8822,741.772,-5.336
1813.9728,741.872,-5.33601
1814.0628,741.972,-5.33602
1814.1528,742.072,-5.33596
1814.2434,742.172,-5.33593
1814.3334,742.272,-5.33609
1814.424,742.372,-5.33627
1814.514,742.472,-5.33587
1814.6046,742.572,-5.33474
1814.6946,742.672,-5.334
1814.7852,742.772,-5.33461
1814.8758,742.872,-5.33577
1814.9664,742.972,-5.33627
1815.057,743.072,-5.33611
1815.1476,743.172,-5.33594
1815.2382,743.272,-5.33595
1815.3282,743.372,-5.33601
1815.4194,743.472,-5.33602
1815.51,743.572,-5.336
1815.6006,743.672,-5.33599
1815.6906,743.772,-5.336
1815.7806,743.872,-5.33601
1815.8712,743.972,-5.33601
1815.9618,744.072,-5.33598
1816.053,744.172,-5.33597
1816.1436,744.272,-5.33605
1816.2348,744.372,-5.33611
1816.3254,744.472,-5.3359
1816.4166,744.572,-5.3354
1816.5072,744.672,-5.33498
1816.5984,744.772,-5.3349
1816.6896,744.872,-5.33499
1816.7808,744.972,-5.33503
1816.8714,745.072,-5.33501
1816.9626,745.172,-5.33499
1817.0538,745.272,-5.335
1817.145,745.372,-5.335
1817.2356,745.472,-5.33501
1817.3262,745.572,-5.335
1817.4168,745.672,-5.33498
1817.5074,745.772,-5.335
1817.5986,745.872,-5.33505
1817.6898,745.972,-5.33502
1817.781,746.072,-5.33483
1817.8722,746.172,-5.33487
1817.9628,746.272,-5.33555
1818.054,746.372,-5.33658
1818.1446,746.472,-5.33723
1818.2352,746.572,-5.33725
1818.3264,746.672,-5.33686
1818.4176,746.772,-5.33635
1818.5088,746.872,-5.33598
1818.5994,746.972,-5.33591
1818.6906,747.072,-5.33599
1818.7812,747.172,-5.33602
1818.873,747.272,-5.33601
1818.9636,747.372,-5.33599
1819.0548,747.472,-5.336
1819.1454,747.572,-5.336
1819.236,747.672,-5.33599
1819.3272,747.772,-5.33601
1819.4184,747.872,-5.33603
1819.5096,747.972,-5.33599
1819.6014,748.072,-5.3359
1819.6926,748.172,-5.33598
1819.7844,748.272,-5.33641
1819.8762,748.372,-5.33691
1819.9674,748.472,-5.33709
1820.0586,748.572,-5.33702
1820.1498,748.672,-5.33703
1820.241,748.772,-5.33709
1820.3316,748.872,-5.33688
1820.4234,748.972,-5.33637
1820.5146,749.072,-5.33596
1820.6058,749.172,-5.3359
1820.697,749.272,-5.336
1820.7882,749.372,-5.33603
1820.8794,749.472,-5.33601
1820.9706,749.572,-5.33599
1821.0618,749.672,-5.336
1821.1536,749.772,-5.33601
1821.2448,749.872,-5.33601
1821.3366,749.972,-5.33599
1821.4278,750.072,-5.33596
1821.5196,750.172,-5.33602
1821.6114,750.272,-5.33613
1821.7032,750.372,-5.33599
1821.795,750.472,-5.33544
1821.8862,750.572,-5.33501
1821.9774,750.672,-5.33526
1822.0692,750.772,-5.33585
1822.1604,750.872,-5.33613
1822.2516,750.972,-5.33607
1822.3428,751.072,-5.33597
1822.434,751.172,-5.33598
1822.5252,751.272,-5.33601
1822.6176,751.372,-5.33601
1822.7094,751.472,-5.336
1822.8012,751.572,-5.336
1822.8936,751.672,-5.336
1822.9854,751.772,-5.33599
1823.0772,751.872,-5.33599
1823.169,751.972,-5.33603
1823.2614,752.072,-5.33603
1823.3532,752.172,-5.33591
1823.445,752.272,-5.33585
1823.5368,752.372,-5.33623
1823.6286,752.472,-5.33688
1823.721,752.572,-5.3369
1823.8128,752.672,-5.33594
1823.9046,752.772,-5.33497
1823.9964,752.872,-5.33477
1824.0882,752.972,-5.33497
1824.18,753.072,-5.33507
1824.2724,753.172,-5.33502
1824.3642,753.272,-5.33498
1824.456,753.372,-5.33499
1824.5478,753.472,-5.33501
1824.6396,753.572,-5.33501
1824.732,753.672,-5.33499
1824.8238,753.772,-5.33498
1824.9156,753.872,-5.33501
1825.0086,753.972,-5.33506
1825.101,754.072,-5.335
1825.1934,754.172,-5.33481
1825.2852,754.272,-5.33492
1825.3776,754.372,-5.33574
1825.47,754.472,-5.33676
1825.5618,754.572,-5.33721
1825.6542,754.672,-5.3371
1825.7466,754.772,-5.33695
1825.839,754.872,-5.33696
1825.9314,754.972,-5.33701
1826.0238,755.072,-5.33701
1826.1162,755.172,-5.337
1826.2092,755.272,-5.337
1826.3016,755.372,-5.337
1826.394,755.472,-5.337
1826.4864,755.572,-5.337
1826.5788,755.672,-5.337
1826.6712,755.772,-5.337
1826.7636,755.872,-5.337
1826.8566,755.972,-5.337
1826.949,756.072,-5.337
1827.042,756.172,-5.337
1827.1344,756.272,-5.33701
1827.2274,756.372,-5.33702
1827.3198,756.472,-5.33699
1827.4128,756.572,-5.33694
1827.5058,756.672,-5.33701
1827.5982,756.772,-5.3372
1827.6912,756.872,-5.33705
1827.7836,756.972,-5.33619
1827.876,757.072,-5.33518
1827.969,757.172,-5.33479
1828.0614,757.272,-5.33492
1828.1544,757.372,-5.33505
1828.2468,757.472,-5.33503
1828.3398,757.572,-5.33499
1828.4328,757.672,-5.33499
1828.5252,757.772,-5.335
1828.6182,757.872,-5.33499
1828.7112,757.972,-5.33501
1828.8036,758.072,-5.33505
1828.8966,758.172,-5.33501
1828.9902,758.272,-5.33481
1829.0832,758.372,-5.33491
1829.1768,758.472,-5.33572
1829.2698,758.572,-5.33676
1829.3622,758.672,-5.33721
1829.4546,758.772,-5.3371
1829.5476,758.872,-5.33695
1829.6412,758.972,-5.33697
1829.7342,759.072,-5.33701
1829.8266,759.172,-5.33701
1829.9196,759.272,-5.337
1830.0126,759.372,-5.337
1830.1062,759.472,-5.337
1830.1992,759.572,-5.337
1830.2922,759.672,-5.337
1830.3858,759.772,-5.337
1830.4788,759.872,-5.337
1830.5718,759.972,-5.337
1830.6648,760.072,-5.337
1830.7578,760.172,-5.337
1830.8508,760.272,-5.337
1830.9438,760.372,-5.33701
1831.0368,760.472,-5.33702
1831.1298,760.572,-5.33698
1831.2228,760.672,-5.33694
1831.3164,760.772,-5.33703
1831.4094,760.872,-5.33721
1831.5024,760.972,-5.33699
1831.5954,761.072,-5.33606
1831.689,761.172,-5.33508
1831.782,761.272,-5.33477
1831.875,761.372,-5.33494
1831.968,761.472,-5.3351
1832.0616,761.572,-5.33507
1832.1546,761.672,-5.33487
1832.2476,761.772,-5.33479
1832.3412,761.872,-5.33535
1832.4348,761.972,-5.33641
1832.5284,762.072,-5.33714
1832.6214,762.172,-5.33717
1832.7144,762.272,-5.33698
1832.808,762.372,-5.33696
1832.901,762.472,-5.337
1832.9952,762.572,-5.33699
1833.0888,762.672,-5.33699
1833.1824,762.772,-5.33708
1833.2766,762.872,-5.33706
1833.3702,762.972,-5.33667
1833.4644,763.072,-5.33614
1833.558,763.172,-5.3359
1833.6516,763.272,-5.33595
1833.7458,763.372,-5.33602
1833.8394,763.472,-5.33601
1833.933,763.572,-5.336
1834.0266,763.672,-5.33602
1834.1202,763.772,-5.33598
1834.2138,763.872,-5.33589
1834.3074,763.972,-5.33603
1834.401,764.072,-5.33651
1834.4952,764.172,-5.33698
1834.5888,764.272,-5.3371
1834.683,764.372,-5.33702
1834.7766,764.472,-5.33698
1834.8708,764.572,-5.337
1834.965,764.672,-5.33699
1835.0586,764.772,-5.33698
1835.1528,764.872,-5.33705
1835.2464,764.972,-5.3371
1835.34,765.072,-5.33684
1835.4336,765.172,-5.33631
1835.5272,765.272,-5.33593
1835.6208,765.372,-5.33591
1835.7144,765.472,-5.33601
1835.808,765.572,-5.33605
1835.9016,765.672,-5.336
1835.9946,765.772,-5.33589
1836.0888,765.872,-5.33597
1836.1824,765.972,-5.3364
1836.2766,766.072,-5.33691
1836.3708,766.172,-5.33711
1836.4644,766.272,-5.33704
1836.558,766.372,-5.33697
1836.6522,766.472,-5.33698
1836.7464,766.572,-5.33701
1836.84,766.672,-5.33701
1836.9342,766.772,-5.33699
1837.0284,766.872,-5.33697
1837.1226,766.972,-5.33702
1837.2168,767.072,-5.3371
1837.311,767.172,-5.33696
1837.4046,767.272,-5.3365
1837.4988,767.372,-5.33601
1837.593,767.472,-5.3358
1837.6872,767.572,-5.33595
1837.7814,767.672,-5.33642
1837.8756,767.772,-5.33691
1837.9704,767.872,-5.3371
1838.0646,767.972,-5.33703
1838.1588,768.072,-5.33697
1838.253,768.172,-5.33699
1838.3478,768.272,-5.33701
1838.4432,768.372,-5.337
1838.5374,768.472,-5.337
1838.6316,768.572,-5.337
1838.7258,768.672,-5.337
1838.82,768.772,-5.33701
1838.9142,768.872,-5.337
1839.0084,768.972,-5.33696
1839.1032,769.072,-5.337
1839.198,769.172,-5.33713
1839.2922,769.272,-5.33703
1839.3864,769.372,-5.33649
1839.4812,769.472,-5.33602
1839.576,769.572,-5.33625
1839.6702,769.672,-5.33685
1839.765,769.772,-5.33713
1839.8592,769.872,-5.33705
1839.954,769.972,-5.33697
1840.0488,770.072,-5.33698
1840.143,770.172,-5.33701
1840.2372,770.272,-5.33701
1840.3314,770.372,-5.337
1840.4256,770.472,-5.337
1840.5204,770.572,-5.337
1840.6152,770.672,-5.33701
1840.71,770.772,-5.337
1840.8048,770.872,-5.33697
1840.8996,770.972,-5.337
1840.9938,771.072,-5.33709
1841.0886,771.172,-5.33703
1841.1834,771.272,-5.33662
1841.2782,771.372,-5.3361
1841.3736,771.472,-5.33581
1841.4684,771.572,-5.33589
1841.5638,771.672,-5.33632
1841.6586,771.772,-5.33684
1841.7534,771.872,-5.33709
1841.8488,771.972,-5.33705
1841.9442,772.072,-5.33698
1842.039,772.172,-5.33698
1842.1338,772.272,-5.337
1842.2286,772.372,-5.337
1842.3234,772.472,-5.337
1842.4182,772.572,-5.33701
1842.513,772.672,-5.337
1842.6072,772.772,-5.33697
1842.7026,772.872,-5.337
1842.7974,772.972,-5.3371
1842.8928,773.072,-5.33702
1842.9882,773.172,-5.33656
1843.083,773.272,-5.33606
1843.1778,773.372,-5.33594
1843.2726,773.472,-5.33601
1843.3674,773.572,-5.33588
1843.4622,773.672,-5.33584
1843.557,773.772,-5.33649
1843.6512,773.872,-5.33758
1843.7466,773.972,-5.33819
1843.842,774.072,-5.33814
1843.9374,774.172,-5.33793
1844.0322,774.272,-5.3379
1844.127,774.372,-5.33806
1844.2224,774.472,-5.33823
1844.3178,774.572,-5.33787
1844.4132,774.672,-5.33684
1844.508,774.772,-5.33595
1844.6034,774.872,-5.3358
1844.6988,774.972,-5.336
1844.7942,775.072,-5.33606
1844.8896,775.172,-5.33601
1844.985,775.272,-5.33598
1845.0804,775.372,-5.336
1845.1758,775.472,-5.336
1845.2718,775.572,-5.336
1845.3672,775.672,-5.336
1845.4626,775.772,-5.336
1845.558,775.872,-5.336
1845.6534,775.972,-5.336
1845.7488,776.072,-5.336
1845.8442,776.172,-5.336
1845.9402,776.272,-5.336
1846.0356,776.372,-5.336
1846.1316,776.472,-5.336
1846.2276,776.572,-5.336
1846.3236,776.672,-5.336
1846.419,776.772,-5.336
1846.5144,776.872,-5.336
1846.6098,776.972,-5.336
1846.7052,777.072,-5.336
1846.8006,777.172,-5.336
1846.896,777.272,-5.336
1846.9914,777.372,-5.33599
1847.0868,777.472,-5.33599
1847.1822,777.572,-5.33605
1847.2776,777.672,-5.33603
1847.373,777.772,-5.33584
1847.469,777.872,-5.33585
1847.565,777.972,-5.33659
1847.661,778.072,-5.33768
1847.7564,778.172,-5.33821
1847.8524,778.272,-5.33812
1847.9478,778.372,-5.33792
1848.0438,778.472,-5.33791
1848.1398,778.572,-5.3381
1848.2352,778.672,-5.33822
1848.3306,778.772,-5.33775
1848.4266,778.872,-5.33669
1848.5226,778.972,-5.33589
1848.618,779.072,-5.33583
1848.714,779.172,-5.33602
1848.8094,779.272,-5.33605
1848.9054,779.372,-5.336
1849.0014,779.472,-5.33599
1849.0974,779.572,-5.336
1849.1934,779.672,-5.336
1849.29,779.772,-5.336
1849.386,779.872,-5.336
1849.4826,779.972,-5.336
1849.5786,780.072,-5.336
1849.6746,780.172,-5.336
1849.7706,780.272,-5.336
1849.8666,780.372,-5.336
1849.9626,780.472,-5.336
1850.0586,780.572,-5.336
1850.1546,780.672,-5.336
1850.2506,780.772,-5.336
1850.3466,780.872,-5.336
1850.4432,780.972,-5.336
1850.5398,781.072,-5.336
1850.6358,781.172,-5.336
1850.7324,781.272,-5.336
1850.8284,781.372,-5.336
1850.925,781.472,-5.336
1851.0216,781.572,-5.336
1851.1182,781.672,-5.336
1851.2148,781.772,-5.33601
1851.3114,781.872,-5.33599
1851.408,781.972,-5.33595
1851.504,782.072,-5.33601
1851.6006,782.172,-5.33619
1851.6972,782.272,-5.33602
1851.7932,782.372,-5.33514
1851.8886,782.472,-5.3341
1851.9846,782.572,-5.33361
1852.0806,782.672,-5.33386
1852.1766,782.772,-5.33479
1852.2738,782.872,-5.33581
1852.3704,782.972,-5.3362
1852.467,783.072,-5.33606
1852.563,783.172,-5.33595
1852.6596,783.272,-5.33598
1852.7562,783.372,-5.33601
1852.8528,783.472,-5.33601
1852.9488,783.572,-5.336
1853.0454,783.672,-5.336
1853.142,783.772,-5.336
1853.2386,783.872,-5.33601
1853.3346,783.972,-5.33599
1853.4312,784.072,-5.33597
1853.5272,784.172,-5.33603
1853.6244,784.272,-5.33611
1853.7204,784.372,-5.33592
1853.8164,784.472,-5.33539
1853.9124,784.572,-5.33497
1854.009,784.672,-5.33493
1854.1062,784.772,-5.335
1854.2022,784.872,-5.33492
1854.2988,784.972,-5.335
1854.3954,785.072,-5.33547
1854.492,785.172,-5.33597
1854.5892,785.272,-5.33611
1854.6858,785.372,-5.33601
1854.7824,785.472,-5.33597
1854.8784,785.572,-5.33599
1854.975,785.672,-5.33601
1855.0722,785.772,-5.336
1855.1688,785.872,-5.336
1855.2654,785.972,-5.336
1855.3626,786.072,-5.33598
1855.4598,786.172,-5.33598
1855.5564,786.272,-5.33606
1855.6536,786.372,-5.33609
1855.7508,786.472,-5.33578
1855.8474,786.572,-5.33523
1855.9446,786.672,-5.3349
1856.0418,786.772,-5.33493
1856.139,786.872,-5.33503
1856.2356,786.972,-5.33505
1856.3328,787.072,-5.33496
1856.43,787.172,-5.33489
1856.5266,787.272,-5.3351
1856.6238,787.372,-5.33564
1856.7204,787.472,-5.33605
1856.8176,787.572,-5.33609
1856.9148,787.672,-5.33599
1857.012,787.772,-5.33597
1857.1092,787.872,-5.336
1857.2064,787.972,-5.33601
1857.3036,788.072,-5.336
1857.4014,788.172,-5.33597
1857.4986,788.272,-5.336
1857.5958,788.372,-5.3361
1857.693,788.472,-5.33602
1857.7908,788.572,-5.33556
1857.888,788.672,-5.33504
1857.9852,788.772,-5.33489
1858.0824,788.872,-5.33498
1858.1796,788.972,-5.33505
1858.2768,789.072,-5.33502
1858.3734,789.172,-5.33491
1858.4712,789.272,-5.33493
1858.5684,789.372,-5.33532
1858.6656,789.472,-5.33586
1858.7634,789.572,-5.33611
1858.8612,789.672,-5.33605
1858.9584,789.772,-5.33596
1859.0562,789.872,-5.33596
1859.1534,789.972,-5.33606
1859.2512,790.072,-5.3361
1859.349,790.172,-5.33579
1859.4468,790.272,-5.33523
1859.5446,790.372,-5.33491
1859.6424,790.472,-5.33494
1859.7402,790.572,-5.33502
1859.838,790.672,-5.33502
1859.9358,790.772,-5.33499
1860.033,790.872,-5.33499
1860.1308,790.972,-5.33501
1860.228,791.072,-5.33503
1860.3252,791.172,-5.33497
1860.423,791.272,-5.33489
1860.5208,791.372,-5.33508
1860.6186,791.472,-5.33563
1860.7164,791.572,-5.33604
1860.8142,791.672,-5.33603
1860.912,791.772,-5.33601
1861.0098,791.872,-5.33619
1861.1076,791.972,-5.33595
1861.206,792.072,-5.33494
1861.3038,792.172,-5.33398
1861.4016,792.272,-5.3338
1861.4994,792.372,-5.334
1861.5978,792.472,-5.33405
1861.6956,792.572,-5.334
1861.794,792.672,-5.33401
1861.8918,792.772,-5.33401
1861.9896,792.872,-5.33391
1862.0874,792.972,-5.33396
1862.1846,793.072,-5.33441
1862.2824,793.172,-5.33494
1862.3808,793.272,-5.33511
1862.4786,793.372,-5.33502
1862.577,793.472,-5.33497
1862.6748,793.572,-5.33499
1862.7732,793.672,-5.33501
1862.871,793.772,-5.335
1862.9688,793.872,-5.335
1863.0672,793.972,-5.335
1863.165,794.072,-5.335
1863.2628,794.172,-5.335
1863.3606,794.272,-5.335
1863.459,794.372,-5.335
1863.5568,794.472,-5.335
1863.6552,794.572,-5.33499
1863.753,794.672,-5.33502
1863.8508,794.772,-5.33503
1863.9486,794.872,-5.33495
1864.0464,794.972,-5.3349
1864.1448,795.072,-5.33519
1864.2432,795.172,-5.33574
1864.3416,795.272,-5.33609
1864.4394,795.372,-5.33608
1864.5378,795.472,-5.33596
1864.6362,795.572,-5.33593
1864.7346,795.672,-5.33608
1864.833,795.772,-5.33622
1864.932,795.872,-5.33575
1865.0304,795.972,-5.33465
1865.1282,796.072,-5.33386
1865.2266,796.172,-5.33384
1865.3244,796.272,-5.33403
1865.4228,796.372,-5.33404
1865.5212,796.472,-5.33399
1865.6196,796.572,-5.33399
1865.718,796.672,-5.334
1865.8164,796.772,-5.334
1865.9148,796.872,-5.334
1866.0138,796.972,-5.33403
1866.1122,797.072,-5.33399
1866.2106,797.172,-5.33389
1866.309,797.272,-5.33403
1866.408,797.372,-5.33455
1866.5064,797.472,-5.33502
1866.6054,797.572,-5.3351
1866.7038,797.672,-5.335
1866.8022,797.772,-5.33497
1866.9006,797.872,-5.335
1866.999,797.972,-5.33501
1867.0974,798.072,-5.335
1867.1958,798.172,-5.335
1867.2948,798.272,-5.335
1867.3926,798.372,-5.335
1867.491,798.472,-5.335
1867.5894,798.572,-5.335
1867.6884,798.672,-5.335
1867.7868,798.772,-5.33498
1867.8858,798.872,-5.33499
1867.9842,798.972,-5.33506
1868.0826,799.072,-5.33503
1868.1816,799.172,-5.33478
1868.28,799.272,-5.33487
1868.379,799.372,-5.33592
1868.4768,799.472,-5.33695
1868.5758,799.572,-5.3365
1868.6742,799.672,-5.33525
1868.7732,799.772,-5.33473
1868.8716,799.872,-5.33493
1868.9706,799.972,-5.33507
1869.0696,800.072,-5.33502
1869.1686,800.172,-5.33498
1869.2676,800.272,-5.33499
1869.3666,800.372,-5.33501
1869.465,800.472,-5.335
1869.564,800.572,-5.335
1869.663,800.672,-5.335
1869.7614,800.772,-5.335
1869.8604,800.872,-5.335
1869.9588,800.972,-5.335
1870.0578,801.072,-5.335
1870.1568,801.172,-5.335
1870.2558,801.272,-5.335
1870.3542,801.372,-5.335
1870.4532,801.472,-5.335
1870.5522,801.572,-5.335
1870.6518,801.672,-5.335
1870.7514,801.772,-5.335
1870.851,801.872,-5.335
1870.95,801.972,-5.335
1871.0496,802.072,-5.335
1871.1486,802.172,-5.335
1871.2476,802.272,-5.335
1871.3466,802.372,-5.335
1871.4462,802.472,-5.335
1871.5452,802.572,-5.335
1871.6442,802.672,-5.335
1871.7432,802.772,-5.33499
1871.8428,802.872,-5.33499
1871.9418,802.972,-5.33502
1872.0414,803.072,-5.33505
1872.141,803.172,-5.33492
1872.2406,803.272,-5.33481
1872.3396,803.372,-5.33531
1872.4392,803.472,-5.3364
1872.5388,803.572,-5.33725
1872.6378,803.672,-5.33734
1872.7374,803.772,-5.33665
1872.837,803.872,-5.33554
1872.9366,803.972,-5.33485
1873.0362,804.072,-5.33487
1873.1352,804.172,-5.33504
1873.2342,804.272,-5.33504
1873.3332,804.372,-5.33499
1873.4322,804.472,-5.33499
1873.5312,804.572,-5.335
1873.6308,804.672,-5.335
1873.7298,804.772,-5.335
1873.8294,804.872,-5.335
1873.929,804.972,-5.335
1874.028,805.072,-5.33501
1874.1276,805.172,-5.33499
1874.2266,805.272,-5.33497
1874.3262,805.372,-5.33503
1874.4258,805.472,-5.33511
1874.5248,805.572,-5.33491
1874.6244,805.672,-5.33436
1874.7234,805.772,-5.33394
1874.823,805.872,-5.33392
1874.9226,805.972,-5.33402
1875.0222,806.072,-5.33402
1875.1224,806.172,-5.334
1875.222,806.272,-5.334
1875.3222,806.372,-5.334
1875.4218,806.472,-5.33399
1875.5214,806.572,-5.33401
1875.621,806.672,-5.33406
1875.7212,806.772,-5.33396
1875.8214,806.872,-5.33379
1875.921,806.972,-5.33416
1876.0212,807.072,-5.33525
1876.1208,807.172,-5.33611
1876.221,807.272,-5.33617
1876.3212,807.372,-5.33597
1876.4208,807.472,-5.33596
1876.521,807.572,-5.336
1876.6212,807.672,-5.33599
1876.7208,807.772,-5.33602
1876.8204,807.872,-5.3361
1876.92,807.972,-5.33593
1877.0196,808.072,-5.33541
1877.1198,808.172,-5.33493
1877.22,808.272,-5.33481
1877.3196,808.372,-5.33509
1877.4198,808.472,-5.33564
1877.52,808.572,-5.33605
1877.6196,808.672,-5.33608
1877.7186,808.772,-5.33599
1877.8182,808.872,-5.33598
1877.9178,808.972,-5.336
1878.0174,809.072,-5.33601
1878.1176,809.172,-5.336
1878.2178,809.272,-5.336
1878.318,809.372,-5.336
1878.4182,809.472,-5.33599
1878.519,809.572,-5.33601
1878.6192,809.672,-5.33604
1878.7188,809.772,-5.33598
1878.8184,809.872,-5.33586
1878.9186,809.972,-5.33609
1879.0188,810.072,-5.33672
1879.119,810.172,-5.33698
1879.2192,810.272,-5.33647
1879.3194,810.372,-5.33593
1879.4202,810.472,-5.33589
1879.521,810.572,-5.33602
1879.6218,810.672,-5.33603
1879.722,810.772,-5.33599
1879.8222,810.872,-5.33599
1879.923,810.972,-5.336
1880.0232,811.072,-5.336
1880.1234,811.172,-5.336
1880.2242,811.272,-5.336
1880.325,811.372,-5.336
1880.4258,811.472,-5.33599
1880.5266,811.572,-5.33601
1880.6274,811.672,-5.33604
1880.7276,811.772,-5.33596
1880.8278,811.872,-5.33586
1880.928,811.972,-5.33614
1881.0276,812.072,-5.33677
1881.1278,812.172,-5.33696
1881.228,812.272,-5.33641
1881.3288,812.372,-5.33591
1881.4296,812.472,-5.3359
1881.5304,812.572,-5.33602
1881.6312,812.672,-5.33603
1881.7314,812.772,-5.33599
1881.8328,812.872,-5.33599
1881.933,812.972,-5.336
1882.0332,813.072,-5.336
1882.1334,813.172,-5.336
1882.2342,813.272,-5.336
1882.335,813.372,-5.336
1882.4358,813.472,-5.33601
1882.5366,813.572,-5.33599
1882.6374,813.672,-5.33596
1882.7382,813.772,-5.33605
1882.839,813.872,-5.33613
1882.9404,813.972,-5.33579
1883.0412,814.072,-5.33516
1883.142,814.172,-5.33509
1883.2428,814.272,-5.33569
1883.3454,814.372,-5.33612
1883.448,814.472,-5.33607
1883.5428,814.572,-5.33597
1883.6406,814.672,-5.33598
1883.7672,814.772,-5.33601
1883.9256,814.872,-5.33601
