Time,T_back_1
[s],[K]
0.0,290.65
1.0564,290.65
2.1128,290.65
3.1692,290.65
4.0496,290.65
5.106,290.65
6.1624,290.65
7.0427,290.65
8.0991,290.65
9.1555,290.65
10.0359,290.65
11.0923,290.65
12.1487,290.6501
13.029,290.6502
14.0855,290.6506
15.1419,290.6515
16.0222,290.653
17.0786,290.6555
18.135,290.6599
19.0154,290.6662
20.0718,290.6752
21.1282,290.6891
22.0085,290.7064
23.0649,290.7292
24.1213,290.7611
25.0017,290.7979
26.0581,290.8433
27.1145,290.9034
28.1709,290.9758
29.0512,291.0539
30.1077,291.1448
31.1641,291.2589
32.0444,291.378
33.1008,291.5125
34.1572,291.6769
35.0376,291.8445
36.094,292.0296
37.1504,292.2513
38.0307,292.4731
39.0871,292.714
40.1435,292.9981
41.0239,293.2783
42.0803,293.5786
43.1367,293.9283
44.017,294.2694
45.0735,294.631
46.1299,295.0481
47.0102,295.4512
48.0666,295.8749
49.123,296.3597
50.0034,296.8247
51.0598,297.31
52.1162,297.8616
53.1726,298.4364
54.0529,298.9832
55.1093,299.5496
56.1657,300.1886
57.0461,300.7935
58.1025,301.4172
59.1589,302.1178
60.0392,302.7782
61.0957,303.4564
62.1521,304.2154
63.0324,304.9282
64.0888,305.6579
65.1452,306.4717
66.0256,307.2338
67.082,308.0116
68.1384,308.8768
69.0187,309.6849
70.0751,310.5075
71.1315,311.4203
72.0119,312.271
73.0683,313.1351
74.1247,314.092
75.005,314.982
76.0614,315.8845
77.1179,316.8821
78.1743,317.8934
79.0546,318.8317
80.111,319.7812
81.1674,320.8288
82.0478,321.7996
83.1042,322.7807
84.1606,323.8617
85.0409,324.8623
86.0973,325.8724
87.1537,326.9842
88.0341,328.0123
89.0905,329.049
90.1469,330.1892
91.0272,331.2427
92.0837,332.3041
93.1401,333.4705
94.0204,334.5474
95.0768,335.6317
96.1332,336.8225
97.0136,337.9211
98.07,339.0266
99.1264,340.24
100.0067,341.3589
101.0631,342.4846
102.1195,343.7197
103.176,344.9617
104.0563,346.1063
105.1127,347.257
106.1691,348.5185
107.0494,349.6808
108.1059,350.8486
109.1623,352.1286
110.0426,353.3074
111.099,354.4916
112.1554,355.789
113.0358,356.9838
114.0922,358.1834
115.1486,359.4977
116.0289,360.7076
117.0853,361.9221
118.1417,363.2526
119.0221,364.4768
120.0785,365.7058
121.1349,367.0518
122.0152,368.2901
123.0716,369.5332
124.1281,370.8941
125.0084,372.1462
126.0648,373.4027
127.1212,374.7786
128.0016,376.0441
129.058,377.3138
130.1144,378.7036
131.1708,380.0985
132.0511,381.3815
133.1075,382.6686
134.1639,384.0775
135.0443,385.3732
136.1007,386.6731
137.1571,388.0957
138.0374,389.404
139.0938,390.7164
140.1503,392.1525
141.0306,393.4734
142.087,394.798
143.1434,396.2478
144.0238,397.5808
145.0802,398.9179
146.1366,400.3812
147.0169,401.7266
148.0733,403.0759
149.1297,404.5527
150.0101,405.9105
151.0665,407.2723
152.1229,408.7618
153.0032,410.1317
154.0596,411.5055
155.1161,413.0086
156.1725,414.5166
157.0528,415.9028
158.1092,417.2932
159.1656,418.8144
160.046,420.2132
161.1024,421.6157
162.1588,423.1505
163.0391,424.5616
164.0955,425.9765
165.1519,427.5248
166.0323,428.9481
167.0887,430.3756
168.1451,431.9374
169.0254,433.3733
170.0818,434.8136
171.1383,436.3894
172.0186,437.8377
173.075,439.2902
174.1314,440.8795
175.0118,442.3406
176.0682,443.8058
177.1246,445.409
178.0049,446.8829
179.0613,448.3613
180.1177,449.9782
181.1742,451.601
182.0545,453.0924
183.1109,454.5883
184.1673,456.225
185.0476,457.7302
186.104,459.239
187.1605,460.8907
188.0408,462.4092
189.0972,463.9321
190.1536,465.5988
191.034,467.1309
192.0904,468.6678
193.1468,470.3499
194.0271,471.8965
195.0835,473.4479
196.1399,475.1457
197.0203,476.707
198.0767,478.2736
199.1331,479.9884
200.0134,481.5647
201.0698,483.1464
202.1263,484.8777
203.0066,486.47
204.063,488.0679
205.1194,489.8167
206.1758,491.5727
207.0562,493.1877
208.1126,494.8084
209.169,496.5833
210.0493,498.2156
211.1057,499.855
212.1621,501.65
213.0425,503.3016
214.0989,504.9585
215.1553,506.7736
216.0356,508.4442
217.092,510.1208
218.1485,511.9583
219.0288,513.6492
220.0852,515.3464
221.1416,517.2065
222.022,518.9179
223.0784,520.6366
224.1348,522.5202
225.0151,524.2531
226.0715,525.9938
227.1279,527.9007
228.0083,529.6555
229.0647,531.4179
230.1211,533.349
231.0014,535.1262
232.0578,536.9089
233.1143,538.8608
234.1707,540.82
235.051,542.6212
236.1074,544.4296
237.1638,546.4081
238.0442,548.2265
239.1006,550.0508
240.157,552.0459
241.0373,553.8798
242.0937,555.7185
243.1501,557.7303
244.0305,559.5778
245.0869,561.4284
246.1433,563.4472
247.0236,565.3001
248.08,567.1549
249.1365,569.1798
250.0168,571.0373
251.0732,572.8963
252.1296,574.9244
253.01,576.7837
254.0664,578.6426
255.1228,580.6694
256.0031,582.5256
257.0595,584.3807
258.1159,586.4022
259.1723,588.4207
260.0527,590.2674
261.1091,592.1087
262.1655,594.1123
263.0458,595.9442
264.1023,597.7722
265.1587,599.7622
266.039,601.5815
267.0954,603.3974
268.1518,605.3749
269.0322,607.185
270.0886,608.9923
271.145,610.9614
272.0253,612.7648
273.0817,614.5678
274.1381,616.5347
275.0185,618.3395
276.0749,620.147
277.1313,622.1224
278.0116,623.9391
279.0681,625.7615
280.1245,627.7591
281.0048,629.6009
282.0612,631.4544
283.1176,633.4928
284.174,635.55
285.0544,637.4555
286.1108,639.3824
287.1672,641.5124
288.0475,643.495
289.1039,645.5063
290.1603,647.7355
291.0407,649.824
292.0971,651.9601
293.1535,654.3441
294.0338,656.5749
295.0903,658.8708
296.1467,661.4377
297.027,663.8788
298.0834,666.3985
299.1398,669.2438
300.0202,671.9653
301.0766,674.8109
302.133,678.0057
303.0133,680.9935
304.0697,684.2943
305.1261,688.152
306.0065,691.8844
307.0629,696.0158
308.1193,700.8854
309.1757,706.5028
310.056,711.7078
311.1125,718.3655
312.1689,727.0767
313.0492,737.1341
314.1056,750.1507
315.162,770.5818
316.0424,790.7264
317.0988,796.8397
318.1552,800.6986
319.0355,804.8636
320.0919,808.6199
321.1483,812.2566
322.0287,815.2192
323.0851,817.8866
324.1415,820.519
325.0218,822.7239
326.0783,824.7519
327.1347,826.7984
328.015,828.5378
329.0714,830.1671
330.1278,831.8314
331.0082,833.2722
332.0646,834.6343
333.121,836.0397
334.0013,837.2611
335.0577,838.4255
336.1141,839.635
337.1705,840.7865
338.0509,841.7991
339.1073,842.7671
340.1637,843.7815
341.044,844.6746
342.1005,845.5373
343.1569,846.4438
344.0372,847.2471
345.0936,848.0213
346.15,848.8408
347.0304,849.5718
348.0868,850.282
349.1432,851.0322
350.0235,851.6999
351.0799,852.3456
352.1363,853.0314
353.0167,853.6432
354.0731,854.2393
355.1295,854.8706
356.0098,855.4353
357.0663,855.9859
358.1226,856.5708
359.003,857.0943
360.0594,857.6064
361.1158,858.1508
362.1722,858.6831
363.0526,859.1592
364.109,859.6237
365.1654,860.1201
366.0457,860.5664
367.1021,861.0022
368.1585,861.4686
369.0389,861.8877
370.0953,862.2971
371.1517,862.7378
372.032,863.1303
373.0884,863.5208
374.1449,863.9322
375.0252,864.3068
376.0816,864.6714
377.138,865.0643
378.0184,865.4173
379.0748,865.7641
380.1312,866.1371
381.0115,866.4708
382.0679,866.8009
383.1243,867.1543
384.0047,867.4726
385.0611,867.787
386.1175,868.1237
387.1739,868.4549
388.0542,868.7523
389.1106,869.0476
390.1671,869.364
391.0474,869.6499
392.1038,869.9341
393.1602,870.2383
394.0406,870.5139
395.097,870.7854
396.1534,871.0787
397.0337,871.3418
398.0901,871.6018
399.1465,871.8828
400.0269,872.1336
401.0833,872.3845
402.1397,872.6541
403.02,872.8942
404.0764,873.1354
405.1329,873.3935
406.0132,873.6262
407.0696,873.8553
408.126,874.1046
409.0064,874.3287
410.0628,874.5497
411.1192,874.7874
412.1756,875.0229
413.0559,875.2372
414.1123,875.4465
415.1687,875.6726
416.0491,875.8788
417.1055,876.0826
418.1619,876.3
419.0422,876.4974
420.0986,876.6942
421.1551,876.9052
422.0354,877.0949
423.0918,877.2852
424.1482,877.4894
425.0286,877.6727
426.085,877.8556
427.1414,878.0536
428.0217,878.2328
429.0781,878.4082
430.1345,878.5982
431.0149,878.7718
432.0713,878.9445
433.1277,879.128
434.008,879.2955
435.0644,879.462
436.1208,879.6408
437.0012,879.8029
438.0576,879.9656
439.114,880.1391
440.1704,880.3098
441.0508,880.4655
442.1072,880.6206
443.1636,880.7882
444.0439,880.9416
445.1003,881.0896
446.1567,881.2505
447.0371,881.3992
448.0935,881.5467
449.1499,881.7054
450.0302,881.8473
451.0866,881.988
452.1431,882.1424
453.0234,882.2821
454.0798,882.4213
455.1362,882.5699
456.0166,882.7056
457.073,882.8391
458.1294,882.9844
459.0097,883.1179
460.0661,883.2478
461.1225,883.3894
462.0029,883.5186
463.0593,883.646
464.1157,883.7842
465.1721,883.9186
466.0524,884.0428
467.1088,884.1675
468.1653,884.3009
469.0456,884.4206
470.102,884.5405
471.1584,884.6694
472.0388,884.7879
473.0952,884.9048
474.1516,885.0316
475.0319,885.1478
476.0883,885.2606
477.1447,885.3828
478.0251,885.4953
479.0815,885.607
480.1379,885.728
481.0182,885.8389
482.0746,885.9467
483.131,886.0617
484.0114,886.1695
485.0678,886.2772
486.1242,886.3928
487.0046,886.4968
488.061,886.6005
489.1174,886.7119
490.1738,886.823
491.0541,886.9245
492.1105,887.025
493.1669,887.1343
494.0473,887.2347
495.1037,887.3336
496.1601,887.4388
497.0404,887.5347
498.0968,887.6317
499.1533,887.7357
500.0,887.829
